 Sc/Cr d=2.7nm s=0.nm N=40 at 350.eV, P=1.
 Angle (deg), Reflectivity, Phase(deg)
   0.000000  1.00000  180.000
   9.000000E-02  0.988091  177.485
   0.180000  0.976310  174.970
   0.270000  0.964644  172.452
   0.360000  0.953075  169.932
   0.450000  0.941593  167.408
   0.540000  0.930181  164.880
   0.630000  0.918828  162.346
   0.720000  0.907518  159.806
   0.810000  0.896242  157.258
   0.900000  0.884986  154.702
   0.990000  0.873738  152.136
   1.08000  0.862477  149.560
   1.17000  0.851200  146.972
   1.26000  0.839885  144.371
   1.35000  0.828524  141.756
   1.44000  0.817098  139.126
   1.53000  0.805593  136.479
   1.62000  0.793999  133.815
   1.71000  0.782285  131.131
   1.80000  0.770448  128.426
   1.89000  0.758465  125.699
   1.98000  0.746310  122.947
   2.07000  0.733966  120.170
   2.16000  0.721403  117.364
   2.25000  0.708608  114.529
   2.34000  0.695547  111.663
   2.43000  0.682183  108.761
   2.52000  0.668492  105.823
   2.61000  0.654435  102.845
   2.70000  0.639968  99.8250
   2.79000  0.625051  96.7603
   2.88000  0.609632  93.6474
   2.97000  0.593646  90.4825
   3.06000  0.577048  87.2635
   3.15000  0.559751  83.9855
   3.24000  0.541697  80.6469
   3.33000  0.522797  77.2442
   3.42000  0.502965  73.7752
   3.51000  0.482100  70.2379
   3.60000  0.460116  66.6336
   3.69000  0.436940  62.9662
   3.78000  0.412487  59.2418
   3.87000  0.386767  55.4766
   3.96000  0.359832  51.6929
   4.05000  0.331893  47.9275
   4.14000  0.303259  44.2253
   4.23000  0.274484  40.6472
   4.32000  0.246226  37.2552
   4.41000  0.219233  34.1083
   4.50000  0.194145  31.2454
   4.59000  0.171417  28.6793
   4.68000  0.151179  26.3966
   4.77000  0.133356  24.3803
   4.86000  0.117802  22.6246
   4.95000  0.104404  21.1139
   5.04000  9.303657E-02  19.7867
   5.13000  8.332204E-02  18.5434
   5.22000  7.477582E-02  17.3341
   5.31000  6.703918E-02  16.2193
   5.40000  6.009873E-02  15.3204
   5.49000  5.416940E-02  14.6814
   5.58000  4.935300E-02  14.1727
   5.67000  4.541752E-02  13.5619
   5.76000  4.191196E-02  12.7078
   5.85000  3.843511E-02  11.6951
   5.94000  3.490070E-02  10.7930
   6.03000  3.155164E-02  10.2740
   6.12000  2.874025E-02  10.2010
   6.21000  2.665600E-02  10.3265
   6.30000  2.517629E-02  10.2288
   6.39000  2.393812E-02  9.61401
   6.48000  2.256105E-02  8.52324
   6.57000  2.086160E-02  7.30418
   6.66000  1.894443E-02  6.42830
   6.75000  1.711497E-02  6.24657
   6.84000  1.568795E-02  6.74911
   6.93000  1.480470E-02  7.48178
   7.02000  1.435784E-02  7.79277
   7.11000  1.405666E-02  7.26872
   7.20000  1.358627E-02  5.96717
   7.29000  1.276921E-02  4.33580
   7.38000  1.164638E-02  3.00070
   7.47000  1.043717E-02  2.52690
   7.56000  9.423018E-03  3.14074
   7.65000  8.800577E-03  4.47909
   7.74000  8.588828E-03  5.67785
   7.83000  8.627335E-03  5.91782
   7.92000  8.660757E-03  4.93238
   8.01000  8.463313E-03  3.04470
   8.10000  7.939949E-03  0.923487
   8.19000  7.163247E-03 -0.648203
   8.28000  6.329535E-03 -0.994170
   8.37000  5.663336E-03  0.132142
   8.46000  5.313810E-03  2.20143
   8.55000  5.292228E-03  4.02055
   8.64000  5.471823E-03  4.52037
   8.73000  5.649790E-03  3.40805
   8.82000  5.640641E-03  1.10730
   8.91000  5.353874E-03 -1.59385
   9.00000  4.827954E-03 -3.78538
   9.09000  4.206906E-03 -4.60168
   9.18000  3.674175E-03 -3.52231
   9.27000  3.373355E-03 -0.885795
   9.36000  3.349220E-03  1.92252
   9.45000  3.532846E-03  3.33580
   9.54000  3.775257E-03  2.69835
   9.63000  3.912986E-03  0.347625
   9.72000  3.835591E-03 -2.88109
   9.81000  3.527950E-03 -5.99331
   9.90000  3.071781E-03 -7.95574
   9.99000  2.607997E-03 -7.85397
   10.0800  2.277541E-03 -5.38120
   10.1700  2.165568E-03 -1.55851
   10.2600  2.267732E-03  1.51936
   10.3500  2.497053E-03  2.29615
   10.4400  2.721008E-03  0.643940
   10.5300  2.816207E-03 -2.66751
   10.6200  2.716274E-03 -6.59436
   10.7100  2.435410E-03 -10.0291
   10.8000  2.058838E-03 -11.8247
   10.8900  1.707480E-03 -10.9641
   10.9800  1.489268E-03 -7.28603
   11.0700  1.458306E-03 -2.43977
   11.1600  1.595658E-03  0.869803
   11.2500  1.819401E-03  1.17892
   11.3400  2.018527E-03 -1.22063
   11.4300  2.096433E-03 -5.28040
   11.5200  2.006928E-03 -9.83774
   11.6100  1.769570E-03 -13.7126
   11.7000  1.460165E-03 -15.6345
   11.7900  1.179114E-03 -14.3961
   11.8800  1.014287E-03 -9.76123
   11.9700  1.007466E-03 -3.83656
   12.0600  1.140624E-03  3.862261E-03
   12.1500  1.344754E-03  0.213857
   12.2400  1.527342E-03 -2.63226
   12.3300  1.607575E-03 -7.27568
   12.4200  1.545663E-03 -12.4667
   12.5100  1.356032E-03 -16.9797
   12.6000  1.099869E-03 -19.4525
   12.6900  8.614462E-04 -18.4148
   12.7800  7.162890E-04 -13.2275
   12.8700  7.039131E-04 -6.06492
   12.9600  8.147472E-04 -1.15225
   13.0500  9.948859E-04 -0.519284
   13.1400  1.167342E-03 -3.45742
   13.2300  1.260708E-03 -8.50369
   13.3200  1.234667E-03 -14.3127
   13.4100  1.093327E-03 -19.6416
   13.5000  8.825120E-04 -23.0974
   13.5900  6.717315E-04 -22.9924
   13.6800  5.288259E-04 -17.9908
   13.7700  4.957350E-04 -9.60654
   13.8600  5.742079E-04 -2.90978
   13.9500  7.264880E-04 -1.12773
   14.0400  8.898602E-04 -3.68451
   14.1300  9.997447E-04 -8.87441
   14.2200  1.012519E-03 -15.2082
   14.3100  9.203473E-04 -21.4180
   14.4000  7.526128E-04 -26.1644
   14.4900  5.646897E-04 -27.7071
   14.5800  4.176878E-04 -24.0363
   14.6700  3.569813E-04 -15.0832
   14.7600  3.966677E-04 -5.93392
   14.8500  5.155805E-04 -1.98043
   14.9400  6.656036E-04 -3.45534
   15.0300  7.892356E-04 -8.39000
   15.1200  8.398331E-04 -15.0296
   15.2100  7.974349E-04 -22.0358
   15.3000  6.748048E-04 -28.1508
   15.3900  5.122595E-04 -31.7799
   15.4800  3.629122E-04 -30.6692
   15.5700  2.741898E-04 -22.8727
   15.6600  2.715727E-04 -11.3437
   15.7500  3.505383E-04 -3.87485
   15.8400  4.787705E-04 -3.16109
   15.9300  6.079983E-04 -7.19397
   16.0200  6.909056E-04 -13.7614
   16.1100  6.972219E-04 -21.3177
   16.2000  6.235153E-04 -28.6359
   16.2900  4.937018E-04 -34.3572
   16.3800  3.501587E-04 -36.4892
   16.4700  2.390590E-04 -32.1621
   16.5600  1.946681E-04 -20.3860
   16.6500  2.279892E-04 -8.33787
   16.7400  3.236683E-04 -3.65078
   16.8300  4.457755E-04 -5.68160
   16.9200  5.503938E-04 -11.5544
   17.0100  6.005039E-04 -19.2459
   17.1000  5.782738E-04 -27.4080
   17.1900  4.904362E-04 -34.8580
   17.2800  3.655416E-04 -40.0615
   17.3700  2.438569E-04 -40.5009
   17.4600  1.638595E-04 -32.6814
   17.5500  1.494419E-04 -17.7280
   17.6400  2.022478E-04 -6.71140
   17.7300  3.016852E-04 -4.73293
   17.8200  4.122021E-04 -8.82266
   17.9100  4.953780E-04 -16.0029
   18.0000  5.226480E-04 -24.5016
   18.0900  4.844606E-04 -33.1162
   18.1800  3.929931E-04 -40.6631
   18.2700  2.776899E-04 -45.4019
   18.3600  1.752517E-04 -44.2020
   18.4500  1.175171E-04 -32.9679
   18.5400  1.211876E-04 -15.7867
   18.6300  1.826205E-04 -6.33600
   18.7200  2.794578E-04 -6.49780
   18.8100  3.782934E-04 -12.0600
   18.9000  4.457140E-04 -20.1870
   18.9900  4.591793E-04 -29.3076
   19.0800  4.140284E-04 -38.3218
   19.1700  3.246601E-04 -46.0443
   19.2600  2.194760E-04 -50.5517
   19.3500  1.315164E-04 -48.0962
   19.4400  8.776896E-05 -33.8693
   19.5300  1.005522E-04 -14.9824
   19.6200  1.638720E-04 -6.80591
   19.7100  2.556565E-04 -8.45086
   19.8000  3.451168E-04 -15.0329
   19.8900  4.027745E-04 -23.8585
   19.9800  4.098091E-04 -33.4938
   20.0700  3.638271E-04 -42.9205
   20.1600  2.793485E-04 -50.9765
   20.2500  1.828883E-04 -55.6485
   20.3400  1.043709E-04 -52.6962
   20.4300  6.761959E-05 -36.2265
   20.5200  8.290146E-05 -15.4608
   20.6100  1.439242E-04 -7.75538
   20.7000  2.300822E-04 -10.2463
   20.7900  3.131803E-04 -17.4903
   20.8800  3.664403E-04 -26.8296
   20.9700  3.728677E-04 -36.9134
   21.0600  3.303752E-04 -46.7890
   21.1500  2.522278E-04 -55.3635
   21.2400  1.626194E-04 -60.6812
   21.3300  8.903669E-05 -58.3274
   21.4200  5.360601E-05 -40.8822
   21.5100  6.632940E-05 -17.4294
   21.6000  1.221291E-04 -8.98152
   21.6900  2.026365E-04 -11.6710
   21.7800  2.820999E-04 -19.2568
   21.8700  3.354382E-04 -28.9505
   21.9600  3.459710E-04 -39.4199
   22.0500  3.104231E-04 -49.7701
   22.1400  2.397347E-04 -59.0180
   22.2300  1.555247E-04 -65.4236
   22.3200  8.330413E-05 -64.8802
   22.4100  4.463787E-05 -48.6075
   22.5000  5.061840E-05 -21.5264
   22.5900  9.856929E-05 -10.5324
   22.6800  1.730532E-04 -12.6365
   22.7700  2.507373E-04 -20.2195
   22.8600  3.075839E-04 -30.1014
   22.9500  3.261602E-04 -40.8761
   23.0400  3.008039E-04 -51.6880
   23.1300  2.392258E-04 -61.6813
   23.2200  1.599773E-04 -69.4408
   23.3100  8.679617E-05 -71.6288
   23.4000  4.136250E-05 -59.5264
   23.4900  3.684099E-05 -29.2814
   23.5800  7.398639E-05 -12.8722
   23.6700  1.410576E-04 -13.2144
   23.7600  2.174690E-04 -20.3398
   23.8500  2.800363E-04 -30.1954
   23.9400  3.099194E-04 -41.1624
   24.0300  2.981747E-04 -52.3712
   24.1200  2.483333E-04 -63.0813
   24.2100  1.751880E-04 -72.2205
   24.3000  1.003527E-04 -77.4133
   24.3900  4.580391E-05 -71.9039
   24.4800  2.735634E-05 -43.3449
   24.5700  5.008396E-05 -17.3860
   24.6600  1.068828E-04 -13.7640
   24.7500  1.806766E-04 -19.6924
   24.8400  2.495116E-04 -29.2083
   24.9300  2.930451E-04 -40.1945
   25.0200  2.984815E-04 -51.6810
   25.1100  2.642317E-04 -62.9900
   25.2000  2.003170E-04 -73.3280
   25.2900  1.253332E-04 -81.1685
   25.3800  6.102491E-05 -82.3666
   25.4700  2.594854E-05 -64.3695
   25.5600  3.009147E-05 -27.7669
   25.6500  7.205352E-05 -15.3387
   25.7400  1.394911E-04 -18.5808
   25.8300  2.127776E-04 -27.2151
   25.9200  2.706748E-04 -37.9574
   26.0100  2.964673E-04 -49.5373
   26.1000  2.827343E-04 -61.2602
   26.1900  2.334108E-04 -72.5043
   26.2800  1.626110E-04 -82.3282
   26.3700  9.055268E-05 -88.5323
   26.4600  3.778868E-05 -84.1195
   26.5500  1.933703E-05 -51.5432
   26.6400  4.042999E-05 -21.0805
   26.7300  9.506101E-05 -17.8835
   26.8200  1.677132E-04 -24.5077
   26.9100  2.378119E-04 -34.5408
   27.0000  2.855261E-04 -45.9467
   27.0900  2.973813E-04 -57.8449
   27.1800  2.700015E-04 -69.6692
   27.2700  2.110554E-04 -80.8019
   27.3600  1.370795E-04 -90.1161
   27.4500  6.882395E-05 -94.6253
   27.5400  2.547473E-05 -83.6081
   27.6300  1.928790E-05 -41.1525
   27.7200  5.216269E-05 -20.3528
   27.8100  1.151275E-04 -21.9179
   27.9000  1.908417E-04 -30.2569
   27.9900  2.583840E-04 -41.0373
   28.0800  2.991023E-04 -52.8068
   28.1700  3.017051E-04 -64.8805
   28.2600  2.654139E-04 -76.7595
   28.3500  2.001559E-04 -87.8186
   28.4400  1.238683E-04 -96.8060
   28.5300  5.761463E-05 -100.072
   28.6200  1.976504E-05 -83.4311
   28.7100  2.102655E-05 -36.8708
   28.8000  6.146036E-05 -22.1976
   28.8900  1.304361E-04 -26.0139
   28.9800  2.095058E-04 -35.1940
   29.0700  2.773841E-04 -46.3475
   29.1600  3.157383E-04 -58.3018
   29.2500  3.141408E-04 -70.4704
   29.3400  2.728926E-04 -82.4010
   29.4300  2.030218E-04 -93.4887
   29.5200  1.233411E-04 -102.473
   29.6100  5.548028E-05 -105.528
   29.7000  1.802254E-05 -86.8586
   29.7900  2.159898E-05 -37.9073
   29.8800  6.592765E-05 -24.9729
   29.9700  1.398428E-04 -29.5121
   30.0600  2.241737E-04 -38.9740
   30.1500  2.968576E-04 -50.2514
   30.2400  3.387042E-04 -62.2648
   30.3300  3.385561E-04 -74.4760
   30.4200  2.962604E-04 -86.4701
   30.5100  2.228271E-04 -97.6981
   30.6000  1.375828E-04 -107.036
   30.6900  6.322434E-05 -111.125
   30.7800  1.986425E-05 -95.6651
   30.8700  1.973739E-05 -44.1163
   30.9600  6.390492E-05 -28.2055
   31.0500  1.418431E-04 -32.1638
   31.1400  2.341105E-04 -41.4373
   31.2300  3.172543E-04 -52.6178
   31.3200  3.699301E-04 -64.5759
   31.4100  3.783901E-04 -76.7754
   31.5000  3.401926E-04 -88.8303
   31.5900  2.649028E-04 -100.273
   31.6800  1.718582E-04 -110.210
   31.7700  8.528614E-05 -116.169
   31.8600  2.817715E-05 -108.097
   31.9500  1.638230E-05 -58.5667
   32.0400  5.439944E-05 -32.5219
   32.1300  1.340799E-04 -34.0764
   32.2200  2.364731E-04 -42.5728
   32.3100  3.365200E-04 -53.3979
   32.4000  4.093154E-04 -65.1654
   32.4900  4.364150E-04 -77.2804
   32.5800  4.106183E-04 -89.3624
   32.6700  3.379838E-04 -101.023
   32.7600  2.365385E-04 -111.614
   32.8500  1.319989E-04 -119.558
   32.9400  5.146720E-05 -119.308
   33.0300  1.668367E-05 -86.3386
   33.1200  3.844005E-05 -40.8812
   33.2100  1.136481E-04 -35.9507
   33.3000  2.257959E-04 -42.5985
   33.3900  3.487802E-04 -52.6586
   33.4800  4.531741E-04 -64.0349
   33.5700  5.134735E-04 -75.9462
   33.6600  5.144333E-04 -87.9770
   33.7500  4.551517E-04 -99.7893
   33.8400  3.495934E-04 -110.927
   33.9300  2.235484E-04 -120.468
   34.0200  1.086930E-04 -125.774
   34.1100  3.494656E-05 -115.779
   34.2000  2.317121E-05 -63.8345
   34.2900  7.971813E-05 -40.2425
   34.3800  1.944896E-04 -42.2655
   34.4700  3.428874E-04 -50.6936
   34.5600  4.913749E-04 -61.3054
   34.6500  6.053348E-04 -72.8148
   34.7400  6.573359E-04 -84.6600
   34.8300  6.340996E-04 -96.4961
   34.9200  5.400084E-04 -107.983
   35.0100  3.967782E-04 -118.586
   35.1000  2.388481E-04 -127.105
   35.1900  1.056666E-04 -129.748
   35.2800  3.248354E-05 -109.687
   35.3700  4.173778E-05 -56.9998
   35.4600  1.372290E-04 -44.0812
   35.5500  3.023997E-04 -48.3938
   35.6400  5.034814E-04 -57.3785
   35.7300  6.967736E-04 -68.0825
   35.8200  8.385915E-04 -79.5083
   35.9100  8.954222E-04 -91.1825
   36.0000  8.523971E-04 -102.783
   36.0900  7.174216E-04 -113.969
   36.1800  5.206409E-04 -124.161
   36.2700  3.084695E-04 -132.019
   36.3600  1.336191E-04 -133.194
   36.4500  4.328331E-05 -109.039
   36.5400  6.785739E-05 -59.3640
   36.6300  2.129101E-04 -48.8593
   36.7200  4.565026E-04 -53.4440
   36.8100  7.526309E-04 -62.3315
   36.9000  1.040594E-03 -72.8488
   36.9900  1.258070E-03 -84.0554
   37.0800  1.355107E-03 -95.5002
   37.1700  1.306520E-03 -106.872
   37.2600  1.118971E-03 -117.831
   37.3500  8.320385E-04 -127.831
   37.4400  5.110726E-04 -135.624
   37.5300  2.352199E-04 -137.350
   37.6200  8.014122E-05 -117.269
   37.7100  1.009216E-04 -68.0252
   37.8000  3.178474E-04 -54.0616
   37.8900  7.090807E-04 -57.3603
   37.9800  1.211826E-03 -65.5965
   38.0700  1.733332E-03 -75.6812
   38.1600  2.168959E-03 -86.5583
   38.2500  2.424108E-03 -97.7363
   38.3400  2.436287E-03 -108.894
   38.4300  2.191990E-03 -119.723
   38.5200  1.734350E-03 -129.757
   38.6100  1.161121E-03 -138.021
   38.7000  6.094067E-04 -141.806
   38.7900  2.318264E-04 -131.024
   38.8800  1.649977E-04 -86.0416
   38.9700  4.983123E-04 -61.1898
   39.0600  1.248127E-03 -60.8744
   39.1500  2.344714E-03 -67.7030
   39.2400  3.634770E-03 -77.0674
   39.3300  4.904389E-03 -87.5050
   39.4200  5.914789E-03 -98.4026
   39.5100  6.448389E-03 -109.399
   39.6000  6.358379E-03 -120.210
   39.6900  5.610260E-03 -130.472
   39.7800  4.316248E-03 -139.517
   39.8700  2.746095E-03 -145.735
   39.9600  1.323833E-03 -143.965
   40.0500  5.909875E-04 -116.448
   40.1400  1.146708E-03 -75.5319
   40.2300  3.559915E-03 -66.7669
   40.3200  8.272026E-03 -71.1106
   40.4100  1.548878E-02 -79.7267
   40.5000  2.513186E-02 -90.1256
   40.5900  3.679280E-02 -101.368
   40.6800  4.980142E-02 -113.049
   40.7700  6.328903E-02 -124.929
   40.8600  7.631008E-02 -136.889
   40.9500  8.797360E-02 -148.841
   41.0400  9.753446E-02 -160.741
   41.1300  0.104456 -172.575
   41.2200  0.108239  175.661
   41.3100  0.108930  163.991
   41.4000  0.106418  152.391
   41.4900  0.101056  140.842
   41.5800  9.305009E-02  129.318
   41.6700  8.302418E-02  117.869
   41.7600  7.157292E-02  106.476
   41.8500  5.931612E-02  95.1817
   41.9400  4.700246E-02  84.0374
   42.0300  3.531719E-02  73.1530
   42.1200  2.486589E-02  62.7132
   42.2100  1.612661E-02  53.0814
   42.3000  9.378468E-03  44.9514
   42.3900  4.697663E-03  39.9795
   42.4800  1.948771E-03  42.6601
   42.5700  8.247906E-04  63.9839
   42.6600  9.090693E-04  96.7242
   42.7500  1.743954E-03  108.967
   42.8400  2.893291E-03  107.962
   42.9300  3.999211E-03  101.899
   43.0200  4.806069E-03  93.7013
   43.1100  5.174600E-03  84.5270
   43.2000  5.074881E-03  74.9335
   43.2900  4.564700E-03  65.2744
   43.3800  3.763517E-03  55.8481
   43.4700  2.821332E-03  47.0357
   43.5600  1.890176E-03  39.4715
   43.6500  1.098607E-03  34.4752
   43.7400  5.356698E-04  35.3707
   43.8300  2.411237E-04  50.5197
   43.9200  2.065505E-04  82.1562
   44.0100  3.830828E-04  100.471
   44.1000  6.951316E-04  102.941
   44.1900  1.056335E-03  98.7314
   44.2800  1.385111E-03  91.6947
   44.3700  1.617378E-03  83.3395
   44.4600  1.714630E-03  74.3644
   44.5500  1.666529E-03  65.1737
   44.6400  1.489278E-03  56.0697
   44.7300  1.219246E-03  47.3738
   44.8200  9.049246E-04  39.5456
   44.9100  5.972515E-04  33.4259
   45.0000  3.409949E-04  30.8531
   45.0900  1.681102E-04  36.3412
   45.1800  9.369952E-05  57.8651
   45.2700  1.152391E-04  85.3534
   45.3600  2.148640E-04  96.7433
   45.4500  3.637694E-04  96.8715
   45.5400  5.281554E-04  92.1061
   45.6300  6.751652E-04  85.1077
   45.7200  7.781855E-04  77.0211
   45.8100  8.206351E-04  68.4237
   45.9000  7.975507E-04  59.6763
   45.9900  7.154401E-04  51.0708
   46.0800  5.899956E-04  42.9341
   46.1700  4.428620E-04  35.7471
   46.2600  2.974669E-04  30.3850
   46.3500  1.751474E-04  28.7081
   46.4400  9.187192E-05  34.9390
   46.5300  5.607679E-05  55.2401
   46.6200  6.794479E-05  80.0161
   46.7100  1.200362E-04  91.2086
   46.8000  1.991088E-04  92.0178
   46.8900  2.886795E-04  87.9603
   46.9800  3.719621E-04  81.5930
   47.0700  4.344965E-04  74.0668
   47.1600  4.663076E-04  65.9752
   47.2500  4.631051E-04  57.6867
   47.3400  4.265165E-04  49.4893
   47.4300  3.634006E-04  41.6875
   47.5200  2.843646E-04  34.7001
   47.6100  2.018175E-04  29.2356
   47.7000  1.279330E-04  26.6865
   47.7900  7.272761E-05  30.0062
   47.8800  4.267921E-05  44.2279
   47.9700  3.995556E-05  67.4742
   48.0600  6.237750E-05  83.1399
   48.1500  1.040478E-04  87.4895
   48.2400  1.565046E-04  85.5660
   48.3300  2.102293E-04  80.5647
   48.4200  2.561275E-04  73.9928
   48.5100  2.869037E-04  66.6098
   48.6000  2.980742E-04  58.8528
   48.6900  2.884075E-04  51.0299
   48.7800  2.599512E-04  43.4184
   48.8700  2.174821E-04  36.3402
   48.9600  1.676234E-04  30.2703
   49.0500  1.177308E-04  26.0343
   49.1400  7.475738E-05  25.2265
   49.2300  4.424025E-05  30.9303
   49.3200  2.955255E-05  46.7400
   49.4100  3.155236E-05  67.2321
   49.5000  4.859295E-05  79.5244
   49.5900  7.691782E-05  82.6806
   49.6800  1.113447E-04  80.6392
   49.7700  1.460971E-04  75.8984
   49.8600  1.756757E-04  69.7221
   49.9500  1.956655E-04  62.7842
   50.0400  2.032692E-04  55.4905
   50.1300  1.976693E-04  48.1348
   50.2200  1.799779E-04  40.9803
   50.3100  1.530113E-04  34.3323
   50.4000  1.207612E-04  28.6248
   50.4900  8.778172E-05  24.5757
   50.5800  5.850250E-05  23.4952
   50.6700  3.660949E-05  27.7552
   50.7600  2.456680E-05  40.2887
   50.8500  2.333974E-05  58.6397
   50.9400  3.233430E-05  72.3515
   51.0300  4.957016E-05  77.6557
   51.1200  7.202200E-05  77.2779
   51.2100  9.609855E-05  73.7533
   51.3000  1.181675E-04  68.5010
   51.3900  1.350650E-04  62.2935
   51.4800  1.444803E-04  55.5881
   51.5700  1.452536E-04  48.6974
   51.6600  1.374590E-04  41.8755
   51.7500  1.223340E-04  35.3832
   51.8400  1.020570E-04  29.5487
   51.9300  7.940072E-05  24.8620
   52.0200  5.733025E-05  22.1350
   52.1100  3.860158E-05  22.7876
   52.2000  2.540422E-05  29.0442
   52.2900  1.909864E-05  42.4136
   52.3800  2.007163E-05  58.4995
   52.4700  2.774376E-05  69.3375
   52.5600  4.068160E-05  73.3221
   52.6500  5.683203E-05  72.6707
   52.7400  7.382350E-05  69.3229
   52.8300  8.927593E-05  64.4306
   52.9200  1.011214E-04  58.6570
   53.0100  1.078512E-04  52.4147
   53.1000  1.086775E-04  45.9922
   53.1900  1.036112E-04  39.6279
   53.2800  9.340386E-05  33.5637
   53.3700  7.944041E-05  28.0947
   53.4600  6.351531E-05  23.6424
   53.5500  4.760055E-05  20.8734
   53.6400  3.358212E-05  20.8817
   53.7300  2.303951E-05  25.3295
   53.8200  1.704899E-05  35.6761
   53.9100  1.608373E-05  49.9362
   54.0000  1.998318E-05  61.8343
   54.0900  2.799105E-05  67.9078
   54.1800  3.888862E-05  69.0983
   54.2700  5.115273E-05  67.1712
   54.3600  6.316154E-05  63.3711
   54.4500  7.339090E-05  58.4585
   54.5400  8.058938E-05  52.9030
   54.6300  8.392544E-05  47.0223
   54.7200  8.306442E-05  41.0562
   54.8100  7.818380E-05  35.2212
   54.9000  6.992636E-05  29.7500
   54.9900  5.931686E-05  24.9343
   55.0800  4.760937E-05  21.1912
   55.1700  3.614812E-05  19.1609
   55.2600  2.618735E-05  19.8343
   55.3500  1.876473E-05  24.5539
   55.4400  1.458986E-05  34.1805
   55.5300  1.396851E-05  46.7556
   55.6200  1.679155E-05  57.4248
   55.7100  2.256338E-05  63.3475
   55.8000  3.047150E-05  64.9775
   55.8900  3.949725E-05  63.6757
   55.9800  4.853337E-05  60.5247
   56.0700  5.651642E-05  56.2313
   56.1600  6.253851E-05  51.2496
   56.2500  6.594596E-05  45.8893
   56.3400  6.639997E-05  40.3824
   56.4300  6.389629E-05  34.9276
   56.5200  5.875923E-05  29.7261
   56.6100  5.158683E-05  25.0117
   56.7000  4.317688E-05  21.0943
   56.7900  3.443429E-05  18.4193
   56.8800  2.626490E-05  17.6476
   56.9700  1.948355E-05  19.7068
   57.0600  1.472836E-05  25.5840
   57.1500  1.239890E-05  35.2790
   57.2400  1.262711E-05  46.3175
   57.3300  1.527121E-05  55.0113
   57.4200  1.994267E-05  59.7291
   57.5100  2.605675E-05  60.9575
   57.6000  3.289901E-05  59.7240
   57.6900  3.970802E-05  56.8749
   57.7800  4.575133E-05  52.9904
   57.8700  5.040192E-05  48.4628
   57.9600  5.319492E-05  43.5670
   58.0500  5.387270E-05  38.5125
   58.1400  5.240010E-05  33.4786
   58.2300  4.895612E-05  28.6414
   58.3200  4.391324E-05  24.1979
   58.4100  3.779103E-05  20.3966
   58.5000  3.119481E-05  17.5753
   58.5900  2.475940E-05  16.2101
   58.6800  1.908223E-05  16.9604
   58.7700  1.466718E-05  20.5990
   58.8600  1.187902E-05  27.5694
   58.9500  1.091308E-05  36.9836
   59.0400  1.178563E-05  46.2663
   59.1300  1.433557E-05  52.9722
   59.2200  1.825023E-05  56.4024
   59.3100  2.309643E-05  57.0747
   59.4000  2.837125E-05  55.7611
   59.4900  3.354594E-05  53.0978
   59.5800  3.811987E-05  49.5421
   59.6700  4.166487E-05  45.4156
   59.7600  4.386087E-05  40.9524
   59.8500  4.452567E-05  36.3342
   59.9400  4.361989E-05  31.7206
   60.0300  4.124698E-05  27.2629
   60.1200  3.764244E-05  23.1255
   60.2100  3.314469E-05  19.5091
   60.3000  2.816004E-05  16.6731
   60.3900  2.312454E-05  14.9672
   60.4800  1.846873E-05  14.8603
   60.5700  1.457137E-05  16.9230
   60.6600  1.173612E-05  21.6439
   60.7500  1.016487E-05  28.9167
   60.8400  9.942721E-06  37.4352
   60.9300  1.103734E-05  45.0857
   61.0200  1.330448E-05  50.3604
   61.1100  1.650560E-05  52.9835
   61.2000  2.032978E-05  53.3899
   61.2900  2.442427E-05  52.1552
   61.3800  2.842577E-05  49.7671
   61.4700  3.198978E-05  46.5895
   61.5600  3.481652E-05  42.8898
   61.6500  3.668199E-05  38.8684
   61.7400  3.744170E-05  34.6845
   61.8300  3.705009E-05  30.4742
   61.9200  3.555440E-05  26.3662
   62.0100  3.309056E-05  22.4953
   62.1000  2.986812E-05  19.0150
   62.1900  2.614857E-05  16.1166
   62.2800  2.222839E-05  14.0458
   62.3700  1.840726E-05  13.1209
   62.4600  1.497030E-05  13.7414
   62.5500  1.216395E-05  16.3288
   62.6400  1.017824E-05  21.1343
   62.7300  9.135011E-06  27.8482
   62.8200  9.079921E-06  35.3204
   62.9100  9.982416E-06  41.9760
   63.0000  1.174153E-05  46.7245
   63.0900  1.419407E-05  49.3071
   63.1800  1.713092E-05  49.9955
   63.2700  2.031363E-05  49.2157
   63.3600  2.349079E-05  47.3559
   63.4500  2.642278E-05  44.7288
   63.5400  2.889196E-05  41.5694
   63.6300  3.072213E-05  38.0595
   63.7200  3.178704E-05  34.3415
   63.8100  3.202233E-05  30.5353
   63.9000  3.142063E-05  26.7491
   63.9900  3.003710E-05  23.0897
   64.0800  2.797830E-05  19.6682
   64.1700  2.539475E-05  16.6167
   64.2600  2.247157E-05  14.0909
   64.3500  1.940878E-05  12.2876
   64.4400  1.641183E-05  11.4549
   64.5300  1.367585E-05  11.8877
   64.6200  1.137269E-05  13.8948
   64.7100  9.638684E-06  17.6806
   64.8000  8.570728E-06  23.1251
   64.8900  8.216839E-06  29.5639
   64.9800  8.577935E-06  35.8941
   65.0700  9.607340E-06  41.0759
   65.1600  1.121746E-05  44.5768
   65.2500  1.328432E-05  46.3707
   65.3400  1.565949E-05  46.7001
   65.4300  1.817873E-05  45.8758
   65.5200  2.067397E-05  44.1809
   65.6100  2.298219E-05  41.8472
   65.7000  2.495964E-05  39.0570
   65.7900  2.648472E-05  35.9530
   65.8800  2.746706E-05  32.6527
   65.9700  2.785583E-05  29.2520
   66.0600  2.763184E-05  25.8397
   66.1500  2.681993E-05  22.4979
   66.2400  2.547425E-05  19.3127
   66.3300  2.368271E-05  16.3773
   66.4200  2.155600E-05  13.7977
   66.5100  1.922106E-05  11.7045
   66.6000  1.681312E-05  10.2523
   66.6900  1.446921E-05  9.63097
   66.7800  1.231716E-05  10.0568
   66.8700  1.047215E-05  11.7457
   66.9600  9.026361E-06  14.8462
   67.0500  8.049083E-06  19.3045
   67.1400  7.580487E-06  24.7356
   67.2300  7.631468E-06  30.4237
   67.3200  8.184152E-06  35.5565
   67.4100  9.194121E-06  39.5475
   67.5000  1.059266E-05  42.1660
   67.5900  1.229312E-05  43.4653
   67.6800  1.419456E-05  43.6327
   67.7700  1.618838E-05  42.8886
   67.8600  1.816399E-05  41.4371
   67.9500  2.001578E-05  39.4487
   68.0400  2.164681E-05  37.0630
   68.1300  2.297426E-05  34.3911
   68.2200  2.393462E-05  31.5260
   68.3100  2.448206E-05  28.5454
   68.4000  2.459551E-05  25.5176
   68.4900  2.427534E-05  22.5062
   68.5800  2.354331E-05  19.5723
   68.6700  2.243990E-05  16.7809
   68.7600  2.102461E-05  14.2013
   68.8500  1.936922E-05  11.9109
   68.9400  1.755462E-05  10.0027
   69.0300  1.566850E-05  8.58290
   69.1200  1.379691E-05  7.78078
   69.2100  1.202593E-05  7.73978
   69.3000  1.043169E-05  8.61269
   69.3900  9.082705E-06  10.5290
   69.4800  8.031618E-06  13.5478
   69.5700  7.318637E-06  17.5747
   69.6600  6.965734E-06  22.3039
   69.7500  6.979240E-06  27.2350
   69.8400  7.348487E-06  31.8113
   69.9300  8.048256E-06  35.5917
   70.0200  9.039097E-06  38.3517
   70.1100  1.026981E-05  40.0578
   70.2000  1.168165E-05  40.8015
   70.2900  1.320913E-05  40.7254
   70.3800  1.478303E-05  39.9777
   70.4700  1.633605E-05  38.6952
   70.5600  1.780202E-05  36.9948
   70.6500  1.912095E-05  34.9737
   70.7400  2.024042E-05  32.7123
   70.8300  2.111861E-05  30.2779
   70.9200  2.172236E-05  27.7283
   71.0100  2.203221E-05  25.1148
   71.1000  2.204082E-05  22.4811
   71.1900  2.175215E-05  19.8715
   71.2800  2.118015E-05  17.3279
   71.3700  2.035303E-05  14.8933
   71.4600  1.930326E-05  12.6144
   71.5500  1.807416E-05  10.5412
   71.6400  1.671296E-05  8.73141
   71.7300  1.527110E-05  7.25028
   71.8200  1.380044E-05  6.17297
   71.9100  1.235334E-05  5.58375
   72.0000  1.097955E-05  5.57743
   72.0900  9.723963E-06  6.25028
   72.1800  8.627253E-06  7.68436
   72.2700  7.723088E-06  9.92883
   72.3600  7.036747E-06  12.9609
   72.4500  6.585669E-06  16.6528
   72.5400  6.379743E-06  20.7545
   72.6300  6.418892E-06  24.9330
   72.7200  6.696299E-06  28.8363
   72.8100  7.196409E-06  32.1867
   72.9000  7.897189E-06  34.8177
   72.9900  8.771835E-06  36.6763
   73.0800  9.787343E-06  37.7936
   73.1700  1.090827E-05  38.2429
   73.2600  1.209619E-05  38.1175
   73.3500  1.331347E-05  37.5099
   73.4400  1.451986E-05  36.5068
   73.5300  1.567939E-05  35.1823
   73.6200  1.675727E-05  33.6017
   73.7100  1.772270E-05  31.8192
   73.8000  1.854905E-05  29.8821
   73.8900  1.921411E-05  27.8294
   73.9800  1.970209E-05  25.6973
   74.0700  2.000118E-05  23.5159
   74.1600  2.010684E-05  21.3126
   74.2500  2.001842E-05  19.1154
   74.3400  1.974277E-05  16.9482
   74.4300  1.928986E-05  14.8359
   74.5200  1.867459E-05  12.8038
   74.6100  1.791621E-05  10.8789
   74.7000  1.703665E-05  9.08832
   74.7900  1.606037E-05  7.46384
   74.8800  1.501356E-05  6.03815
   74.9700  1.392342E-05  4.84977
   75.0600  1.281850E-05  3.93946
   75.1500  1.172376E-05  3.35519
   75.2400  1.066626E-05  3.14505
   75.3300  9.669669E-06  3.36040
   75.4200  8.756047E-06  4.05199
   75.5100  7.943921E-06  5.25875
   75.6000  7.249790E-06  7.00333
   75.6900  6.686403E-06  9.27864
   75.7800  6.263131E-06  12.0305
   75.8700  5.985902E-06  15.1555
   75.9600  5.856700E-06  18.5016
   76.0500  5.875163E-06  21.8827
   76.1400  6.036840E-06  25.1148
   76.2300  6.334530E-06  28.0364
   76.3200  6.758559E-06  30.5354
   76.4100  7.296814E-06  32.5514
   76.5000  7.934895E-06  34.0683
   76.5900  8.657951E-06  35.1038
   76.6800  9.448398E-06  35.6951
   76.7700  1.028914E-05  35.8892
   76.8600  1.116204E-05  35.7371
   76.9500  1.204976E-05  35.2861
   77.0400  1.293322E-05  34.5810
   77.1300  1.379713E-05  33.6627
   77.2200  1.462531E-05  32.5652
   77.3100  1.540282E-05  31.3198
   77.4000  1.611584E-05  29.9537
   77.4900  1.675405E-05  28.4905
   77.5800  1.730775E-05  26.9504
   77.6700  1.776815E-05  25.3521
   77.7600  1.812999E-05  23.7116
   77.8500  1.838951E-05  22.0431
   77.9400  1.854357E-05  20.3604
   78.0300  1.859311E-05  18.6754
   78.1200  1.853856E-05  16.9996
   78.2100  1.838359E-05  15.3438
   78.3000  1.813287E-05  13.7192
   78.3900  1.779244E-05  12.1362
   78.4800  1.736904E-05  10.6042
   78.5700  1.687147E-05  9.13495
   78.6600  1.630784E-05  7.73875
   78.7500  1.568782E-05  6.42749
   78.8400  1.502188E-05  5.21221
   78.9300  1.432069E-05  4.10649
   79.0200  1.359361E-05  3.12264
   79.1100  1.285161E-05  2.27634
   79.2000  1.210442E-05  1.58117
   79.2900  1.136223E-05  1.05391
   79.3800  1.063437E-05  0.711032
   79.4700  9.929160E-06  0.570838
   79.5600  9.254669E-06  0.648606
   79.6500  8.618963E-06  0.961999
   79.7400  8.027236E-06  1.52419
   79.8300  7.486418E-06  2.34629
   79.9200  7.000421E-06  3.43618
   80.0100  6.573772E-06  4.79048
   80.1000  6.209094E-06  6.40000
   80.1900  5.908378E-06  8.24391
   80.2800  5.673602E-06  10.2879
   80.3700  5.504832E-06  12.4895
   80.4600  5.401976E-06  14.7910
   80.5500  5.363768E-06  17.1353
   80.6400  5.388951E-06  19.4576
   80.7300  5.474954E-06  21.6996
   80.8200  5.619130E-06  23.8120
   80.9100  5.818156E-06  25.7504
   81.0000  6.068559E-06  27.4882
   81.0900  6.365914E-06  29.0077
   81.1800  6.706159E-06  30.3010
   81.2700  7.085104E-06  31.3712
   81.3600  7.497496E-06  32.2234
   81.4500  7.939288E-06  32.8703
   81.5400  8.404844E-06  33.3270
   81.6300  8.890296E-06  33.6083
   81.7200  9.390408E-06  33.7311
   81.8100  9.900638E-06  33.7110
   81.9000  1.041718E-05  33.5628
   81.9900  1.093493E-05  33.3012
   82.0800  1.145008E-05  32.9390
   82.1700  1.195940E-05  32.4884
   82.2600  1.245879E-05  31.9604
   82.3500  1.294514E-05  31.3652
   82.4400  1.341547E-05  30.7114
   82.5300  1.386705E-05  30.0078
   82.6200  1.429779E-05  29.2605
   82.7100  1.470519E-05  28.4772
   82.8000  1.508749E-05  27.6631
   82.8900  1.544383E-05  26.8246
   82.9800  1.577208E-05  25.9650
   83.0700  1.607177E-05  25.0899
   83.1600  1.634159E-05  24.2023
   83.2500  1.658215E-05  23.3066
   83.3400  1.679257E-05  22.4052
   83.4300  1.697314E-05  21.5016
   83.5200  1.712409E-05  20.5984
   83.6100  1.724529E-05  19.6980
   83.7000  1.733773E-05  18.8027
   83.7900  1.740242E-05  17.9140
   83.8800  1.743963E-05  17.0344
   83.9700  1.745058E-05  16.1651
   84.0600  1.743648E-05  15.3080
   84.1500  1.739858E-05  14.4642
   84.2400  1.733720E-05  13.6353
   84.3300  1.725517E-05  12.8222
   84.4200  1.715244E-05  12.0261
   84.5100  1.703091E-05  11.2484
   84.6000  1.689275E-05  10.4888
   84.6900  1.673788E-05  9.74974
   84.7800  1.656874E-05  9.03035
   84.8700  1.638636E-05  8.33259
   84.9600  1.619171E-05  7.65606
   85.0500  1.598675E-05  7.00233
   85.1400  1.577254E-05  6.37036
   85.2300  1.555041E-05  5.76184
   85.3200  1.532125E-05  5.17696
   85.4100  1.508723E-05  4.61514
   85.5000  1.484791E-05  4.07775
   85.5900  1.460575E-05  3.56384
   85.6800  1.436100E-05  3.07404
   85.7700  1.411484E-05  2.60815
   85.8600  1.386814E-05  2.16625
   85.9500  1.362189E-05  1.74861
   86.0400  1.337670E-05  1.35446
   86.1300  1.313292E-05  0.983506
   86.2200  1.289162E-05  0.636450
   86.3100  1.265330E-05  0.312733
   86.4000  1.241842E-05  1.118537E-02
   86.4900  1.218793E-05 -0.267977
   86.5800  1.196219E-05 -0.526163
   86.6700  1.174057E-05 -0.762143
   86.7600  1.152453E-05 -0.977478
   86.8500  1.131423E-05 -1.17322
   86.9400  1.110952E-05 -1.34900
   87.0300  1.091114E-05 -1.50652
   87.1200  1.071859E-05 -1.64570
   87.2100  1.053246E-05 -1.76788
   87.3000  1.035260E-05 -1.87351
   87.3900  1.017983E-05 -1.96364
   87.4800  1.001346E-05 -2.03972
   87.5700  9.853462E-06 -2.10111
   87.6600  9.700492E-06 -2.15032
   87.7500  9.553649E-06 -2.18691
   87.8400  9.414008E-06 -2.21247
   87.9300  9.280588E-06 -2.22810
   88.0200  9.154171E-06 -2.23516
   88.1100  9.033790E-06 -2.23300
   88.2000  8.920223E-06 -2.22450
   88.2900  8.812937E-06 -2.20993
   88.3800  8.711484E-06 -2.18905
   88.4700  8.616666E-06 -2.16356
   88.5600  8.527686E-06 -2.13493
   88.6500  8.444676E-06 -2.10389
   88.7400  8.367480E-06 -2.07018
   88.8300  8.296473E-06 -2.03526
   88.9200  8.230871E-06 -1.99996
   89.0100  8.170921E-06 -1.96487
   89.1000  8.116561E-06 -1.93057
   89.1900  8.067444E-06 -1.89731
   89.2800  8.023942E-06 -1.86595
   89.3700  7.985680E-06 -1.83908
   89.4600  7.952537E-06 -1.81288
   89.5500  7.924831E-06 -1.78984
   89.6400  7.902102E-06 -1.77209
   89.7300  7.884537E-06 -1.75681
   89.8200  7.871675E-06 -1.74620
   89.9100  7.864006E-06 -1.73899
   90.0000  7.861780E-06 -1.73755