 Si/Mo d=7.nm s=0.nm N=40 at 91.eV, P=1.
 Angle (deg), Reflectivity, Phase(deg)
   0.000000  1.00000  180.000
   9.000000E-02  0.998120  179.085
   0.180000  0.996244  178.171
   0.270000  0.994371  177.256
   0.360000  0.992501  176.341
   0.450000  0.990634  175.426
   0.540000  0.988770  174.511
   0.630000  0.986908  173.596
   0.720000  0.985049  172.680
   0.810000  0.983193  171.765
   0.900000  0.981339  170.849
   0.990000  0.979487  169.933
   1.08000  0.977636  169.017
   1.17000  0.975788  168.100
   1.26000  0.973942  167.183
   1.35000  0.972097  166.266
   1.44000  0.970253  165.348
   1.53000  0.968411  164.430
   1.62000  0.966571  163.512
   1.71000  0.964731  162.593
   1.80000  0.962892  161.674
   1.89000  0.961054  160.754
   1.98000  0.959216  159.834
   2.07000  0.957379  158.913
   2.16000  0.955542  157.991
   2.25000  0.953705  157.069
   2.34000  0.951869  156.147
   2.43000  0.950032  155.223
   2.52000  0.948195  154.300
   2.61000  0.946358  153.375
   2.70000  0.944520  152.450
   2.79000  0.942682  151.523
   2.88000  0.940843  150.596
   2.97000  0.939002  149.669
   3.06000  0.937160  148.740
   3.15000  0.935317  147.811
   3.24000  0.933472  146.880
   3.33000  0.931626  145.949
   3.42000  0.929778  145.017
   3.51000  0.927928  144.084
   3.60000  0.926076  143.149
   3.69000  0.924221  142.214
   3.78000  0.922364  141.278
   3.87000  0.920504  140.340
   3.96000  0.918641  139.401
   4.05000  0.916775  138.462
   4.14000  0.914905  137.521
   4.23000  0.913033  136.578
   4.32000  0.911156  135.635
   4.41000  0.909275  134.690
   4.50000  0.907390  133.743
   4.59000  0.905503  132.796
   4.68000  0.903608  131.847
   4.77000  0.901710  130.896
   4.86000  0.899806  129.944
   4.95000  0.897896  128.990
   5.04000  0.895982  128.035
   5.13000  0.894062  127.078
   5.22000  0.892136  126.119
   5.31000  0.890203  125.159
   5.40000  0.888263  124.197
   5.49000  0.886316  123.233
   5.58000  0.884363  122.267
   5.67000  0.882402  121.300
   5.76000  0.880433  120.330
   5.85000  0.878456  119.358
   5.94000  0.876470  118.385
   6.03000  0.874475  117.409
   6.12000  0.872472  116.431
   6.21000  0.870458  115.451
   6.30000  0.868436  114.469
   6.39000  0.866402  113.484
   6.48000  0.864358  112.497
   6.57000  0.862302  111.507
   6.66000  0.860235  110.515
   6.75000  0.858156  109.521
   6.84000  0.856064  108.524
   6.93000  0.853960  107.524
   7.02000  0.851842  106.521
   7.11000  0.849710  105.516
   7.20000  0.847562  104.507
   7.29000  0.845401  103.496
   7.38000  0.843224  102.482
   7.47000  0.841029  101.464
   7.56000  0.838819  100.443
   7.65000  0.836590  99.4195
   7.74000  0.834345  98.3921
   7.83000  0.832078  97.3612
   7.92000  0.829792  96.3268
   8.01000  0.827487  95.2889
   8.10000  0.825160  94.2472
   8.19000  0.822810  93.2015
   8.28000  0.820437  92.1520
   8.37000  0.818041  91.0985
   8.46000  0.815619  90.0407
   8.55000  0.813171  88.9786
   8.64000  0.810697  87.9123
   8.73000  0.808193  86.8413
   8.82000  0.805661  85.7658
   8.91000  0.803098  84.6855
   9.00000  0.800503  83.6003
   9.09000  0.797874  82.5100
   9.18000  0.795211  81.4145
   9.27000  0.792510  80.3136
   9.36000  0.789773  79.2072
   9.45000  0.786997  78.0953
   9.54000  0.784177  76.9773
   9.63000  0.781314  75.8534
   9.72000  0.778407  74.7232
   9.81000  0.775452  73.5867
   9.90000  0.772446  72.4436
   9.99000  0.769390  71.2936
   10.0800  0.766277  70.1364
   10.1700  0.763109  68.9723
   10.2600  0.759877  67.8003
   10.3500  0.756583  66.6207
   10.4400  0.753223  65.4330
   10.5300  0.749790  64.2369
   10.6200  0.746284  63.0321
   10.7100  0.742700  61.8185
   10.8000  0.739033  60.5956
   10.8900  0.735279  59.3631
   10.9800  0.731431  58.1206
   11.0700  0.727484  56.8677
   11.1600  0.723434  55.6041
   11.2500  0.719273  54.3293
   11.3400  0.714994  53.0430
   11.4300  0.710593  51.7446
   11.5200  0.706056  50.4336
   11.6100  0.701375  49.1092
   11.7000  0.696546  47.7717
   11.7900  0.691551  46.4195
   11.8800  0.686383  45.0526
   11.9700  0.681028  43.6704
   12.0600  0.675471  42.2718
   12.1500  0.669698  40.8564
   12.2400  0.663689  39.4234
   12.3300  0.657429  37.9721
   12.4200  0.650895  36.5016
   12.5100  0.644066  35.0111
   12.6000  0.636913  33.4996
   12.6900  0.629409  31.9666
   12.7800  0.621525  30.4111
   12.8700  0.613222  28.8320
   12.9600  0.604465  27.2290
   13.0500  0.595212  25.6012
   13.1400  0.585412  23.9483
   13.2300  0.575022  22.2702
   13.3200  0.563986  20.5673
   13.4100  0.552243  18.8398
   13.5000  0.539745  17.0899
   13.5900  0.526433  15.3198
   13.6800  0.512260  13.5336
   13.7700  0.497193  11.7371
   13.8600  0.481219  9.93746
   13.9500  0.464358  8.14503
   14.0400  0.446673  6.37161
   14.1300  0.428288  4.63226
   14.2200  0.409367  2.94165
   14.3100  0.390141  1.31566
   14.4000  0.370860 -0.232578
   14.4900  0.351795 -1.69217
   14.5800  0.333188 -3.05680
   14.6700  0.315252 -4.32392
   14.7600  0.298135 -5.49528
   14.8500  0.281942 -6.57557
   14.9400  0.266716 -7.57173
   15.0300  0.252456 -8.49108
   15.1200  0.239139 -9.34003
   15.2100  0.226735 -10.1240
   15.3000  0.215211 -10.8497
   15.3900  0.204527 -11.5262
   15.4800  0.194612 -12.1638
   15.5700  0.185369 -12.7697
   15.6600  0.176700 -13.3443
   15.7500  0.168557 -13.8815
   15.8400  0.160950 -14.3766
   15.9300  0.153907 -14.8341
   16.0200  0.147424 -15.2704
   16.1100  0.141426 -15.7058
   16.2000  0.135778 -16.1516
   16.2900  0.130352 -16.6007
   16.3800  0.125087 -17.0296
   16.4700  0.120026 -17.4115
   16.5600  0.115287 -17.7346
   16.6500  0.110975 -18.0142
   16.7400  0.107117 -18.2889
   16.8300  0.103619 -18.6012
   16.9200  0.100301 -18.9743
   17.0100  9.698254E-02 -19.3960
   17.1000  9.356807E-02 -19.8217
   17.1900  9.009187E-02 -20.1935
   17.2800  8.670660E-02 -20.4683
   17.3700  8.360507E-02 -20.6420
   17.4600  8.092952E-02 -20.7571
   17.5500  7.869730E-02 -20.8883
   17.6400  7.678273E-02 -21.1091
   17.7300  7.496671E-02 -21.4564
   17.8200  7.302649E-02 -21.9128
   17.9100  7.082754E-02 -22.4104
   18.0000  6.837744E-02 -22.8564
   18.0900  6.582388E-02 -23.1674
   18.1800  6.339707E-02 -23.3037
   18.2700  6.131754E-02 -23.2925
   18.3600  5.970845E-02 -23.2238
   18.4500  5.854497E-02 -23.2188
   18.5400  5.766078E-02 -23.3802
   18.6300  5.680723E-02 -23.7508
   18.7200  5.574353E-02 -24.2974
   18.8100  5.432041E-02 -24.9235
   18.9000  5.253255E-02 -25.4986
   18.9900  5.051823E-02 -25.8988
   19.0800  4.851214E-02 -26.0469
   19.1700  4.676689E-02 -25.9456
   19.2600  4.546685E-02 -25.6876
   19.3500  4.466630E-02 -25.4305
   19.4400  4.427072E-02 -25.3402
   19.5300  4.406608E-02 -25.5282
   19.6200  4.379014E-02 -26.0150
   19.7100  4.321302E-02 -26.7292
   19.8000  4.220881E-02 -27.5317
   19.8900  4.078980E-02 -28.2538
   19.9800  3.910349E-02 -28.7372
   20.0700  3.738568E-02 -28.8785
   20.1600  3.589193E-02 -28.6676
   20.2500  3.482180E-02 -28.2077
   20.3400  3.425965E-02 -27.6935
   20.4300  3.415002E-02 -27.3485
   20.5200  3.431448E-02 -27.3432
   20.6100  3.450451E-02 -27.7432
   20.7000  3.447223E-02 -28.4985
   20.7900  3.403892E-02 -29.4699
   20.8800  3.314103E-02 -30.4668
   20.9700  3.184598E-02 -31.2854
   21.0600  3.033177E-02 -31.7498
   21.1500  2.883941E-02 -31.7566
   21.2400  2.760929E-02 -31.3182
   21.3300  2.681734E-02 -30.5838
   21.4200  2.652807E-02 -29.8082
   21.5100  2.667935E-02 -29.2696
   21.6000  2.709886E-02 -29.1715
   21.6900  2.755129E-02 -29.5858
   21.7800  2.779918E-02 -30.4519
   21.8700  2.766232E-02 -31.6115
   21.9600  2.706003E-02 -32.8505
   22.0500  2.602924E-02 -33.9353
   22.1400  2.471325E-02 -34.6490
   22.2300  2.332660E-02 -34.8334
   22.3200  2.210287E-02 -34.4389
   22.4100  2.123867E-02 -33.5692
   22.5000  2.084674E-02 -32.4817
   22.5900  2.092817E-02 -31.5174
   22.6800  2.137414E-02 -30.9804
   22.7700  2.199348E-02 -31.0418
   22.8600  2.255927E-02 -31.7109
   22.9500  2.286203E-02 -32.8650
   23.0400  2.275720E-02 -34.2988
   23.1300  2.219560E-02 -35.7654
   23.2200  2.123229E-02 -37.0085
   23.3100  2.001322E-02 -37.7917
   23.4000  1.874155E-02 -37.9395
   23.4900  1.763349E-02 -37.3938
   23.5800  1.686949E-02 -36.2707
   23.6700  1.655443E-02 -34.8694
   23.7600  1.669511E-02 -33.5932
   23.8500  1.719953E-02 -32.8076
   23.9400  1.789898E-02 -32.7218
   24.0300  1.858615E-02 -33.3576
   24.1200  1.906101E-02 -34.5885
   24.2100  1.917270E-02 -36.1989
   24.3000  1.884927E-02 -37.9300
   24.3900  1.811140E-02 -39.5075
   24.4800  1.706568E-02 -40.6647
   24.5700  1.588292E-02 -41.1707
   24.6600  1.476185E-02 -40.8836
   24.7500  1.388897E-02 -39.8207
   24.8400  1.339950E-02 -38.2138
   24.9300  1.334994E-02 -36.4832
   25.0200  1.370700E-02 -35.1010
   25.1100  1.435569E-02 -34.4204
   25.2000  1.512441E-02 -34.5821
   25.2900  1.582099E-02 -35.5296
   25.3800  1.627137E-02 -37.0774
   25.4700  1.635331E-02 -38.9742
   25.5600  1.601871E-02 -40.9420
   25.6500  1.530141E-02 -42.6943
   25.7400  1.430925E-02 -43.9509
   25.8300  1.320285E-02 -44.4655
   25.9200  1.216462E-02 -44.0781
   26.0100  1.136371E-02 -42.7991
   26.1000  1.092312E-02 -40.8809
   26.1900  1.089632E-02 -38.7991
   26.2800  1.125740E-02 -37.0974
   26.3700  1.190703E-02 -36.1840
   26.4600  1.269313E-02 -36.2221
   26.5500  1.344054E-02 -37.1533
   26.6400  1.398488E-02 -38.7814
   26.7300  1.420218E-02 -40.8455
   26.8200  1.403046E-02 -43.0610
   26.9100  1.348002E-02 -45.1357
   27.0000  1.262969E-02 -46.7766
   27.0900  1.161281E-02 -47.7039
   27.1800  1.059206E-02 -47.6909
   27.2700  9.730463E-03 -46.6419
   27.3600  9.162280E-03 -44.6942
   27.4500  8.967741E-03 -42.2703
   27.5400  9.159236E-03 -39.9778
   27.6300  9.679941E-03 -38.3779
   27.7200  1.041486E-02 -37.7878
   27.8100  1.121290E-02 -38.2476
   27.9000  1.191435E-02 -39.6035
   27.9900  1.237929E-02 -41.6052
   28.0800  1.251114E-02 -43.9692
   28.1700  1.227236E-02 -46.4031
   28.2600  1.168958E-02 -48.6121
   28.3500  1.084801E-02 -50.2981
   28.4400  9.876860E-03 -51.1725
   28.5300  8.927094E-03 -50.9971
   28.6200  8.145371E-03 -49.6763
   28.7100  7.649281E-03 -47.3744
   28.8000  7.507391E-03 -44.5784
   28.8900  7.726964E-03 -41.9745
   28.9800  8.254276E-03 -40.1748
   29.0700  8.984149E-03 -39.5027
   29.1600  9.778963E-03 -39.9756
   29.2500  1.049250E-02 -41.4139
   29.3400  1.099461E-02 -43.5503
   29.4300  1.119161E-02 -46.0934
   29.5200  1.104101E-02 -48.7513
   29.6100  1.055756E-02 -51.2309
   29.7000  9.809253E-03 -53.2348
   29.7900  8.907080E-03 -54.4594
   29.8800  7.986203E-03 -54.6260
   29.9700  7.184404E-03 -53.5555
   30.0600  6.619929E-03 -51.2997
   30.1500  6.372009E-03 -48.2594
   30.2400  6.468464E-03 -45.1433
   30.3300  6.881311E-03 -42.6962
   30.4200  7.532295E-03 -41.3978
   30.5100  8.306080E-03 -41.3694
   30.6000  9.069693E-03 -42.4716
   30.6900  9.693832E-03 -44.4436
   30.7800  1.007274E-02 -46.9898
   30.8700  1.014027E-02 -49.8162
   30.9600  9.879083E-03 -52.6368
   31.0500  9.322499E-03 -55.1621
   31.1400  8.548762E-03 -57.0919
   31.2300  7.669086E-03 -58.1160
   31.3200  6.810581E-03 -57.9515
   31.4100  6.096629E-03 -56.4366
   31.5000  5.628128E-03 -53.6849
   31.5900  5.468075E-03 -50.2075
   31.6800  5.631653E-03 -46.8198
   31.7700  6.084870E-03 -44.2992
   31.8600  6.749803E-03 -43.0803
   31.9500  7.517709E-03 -43.2135
   32.0400  8.265764E-03 -44.5054
   32.1300  8.875947E-03 -46.6685
   32.2200  9.252207E-03 -49.3994
   32.3100  9.334152E-03 -52.4074
   32.4000  9.105161E-03 -55.4143
   32.4900  8.593609E-03 -58.1401
   32.5800  7.869253E-03 -60.2889
   32.6700  7.031968E-03 -61.5460
   32.7600  6.198032E-03 -61.6025
   32.8500  5.482845E-03 -60.2371
   32.9400  4.984063E-03 -57.4748
   33.0300  4.767830E-03 -53.7557
   33.1200  4.858787E-03 -49.9125
   33.2100  5.236913E-03 -46.8379
   33.3000  5.840989E-03 -45.0964
   33.3900  6.577923E-03 -44.8147
   33.4800  7.336818E-03 -45.8229
   33.5700  8.005422E-03 -47.8290
   33.6600  8.485276E-03 -50.5216
   33.7500  8.705727E-03 -53.6081
   33.8400  8.632823E-03 -56.8150
   33.9300  8.273391E-03 -59.8755
   34.0200  7.673866E-03 -62.5124
   34.1100  6.913322E-03 -64.4250
   34.2000  6.092714E-03 -65.2878
   34.2900  5.321253E-03 -64.7925
   34.3800  4.700880E-03 -62.7572
   34.4700  4.312628E-03 -59.3238
   34.5600  4.205307E-03 -55.1118
   34.6500  4.388684E-03 -51.0902
   34.7400  4.832619E-03 -48.1395
   34.8300  5.471555E-03 -46.6978
   34.9200  6.214285E-03 -46.7646
   35.0100  6.956327E-03 -48.0942
   35.1000  7.595011E-03 -50.3690
   35.1900  8.042361E-03 -53.2773
   35.2800  8.236693E-03 -56.5365
   35.3700  8.150360E-03 -59.8864
   35.4600  7.792464E-03 -63.0740
   35.5500  7.207599E-03 -65.8326
   35.6400  6.469832E-03 -67.8668
   35.7300  5.672871E-03 -68.8493
   35.8200  4.917887E-03 -68.4509
   35.9100  4.300650E-03 -66.4445
   36.0000  3.898644E-03 -62.9053
   36.0900  3.760963E-03 -58.4114
   36.1800  3.902142E-03 -53.9686
   36.2700  4.300310E-03 -50.5583
   36.3600  4.900300E-03 -48.7110
   36.4500  5.621543E-03 -48.4656
   36.5400  6.368893E-03 -49.5816
   36.6300  7.044557E-03 -51.7312
   36.7200  7.561526E-03 -54.5953
   36.8100  7.852988E-03 -57.8901
   36.9000  7.881219E-03 -61.3615
   36.9900  7.641417E-03 -64.7709
   37.0800  7.161810E-03 -67.8735
   37.1700  6.500239E-03 -70.3997
   37.2600  5.736838E-03 -72.0421
   37.3500  4.964040E-03 -72.4596
   37.4400  4.275485E-03 -71.3288
   37.5300  3.754354E-03 -68.4934
   37.6200  3.462886E-03 -64.2037
   37.7100  3.434960E-03 -59.2700
   37.8000  3.671513E-03 -54.8142
   37.8900  4.141177E-03 -51.7239
   37.9800  4.784112E-03 -50.3347
   38.0700  5.519966E-03 -50.5376
   38.1600  6.257998E-03 -52.0254
   38.2500  6.908102E-03 -54.4599
   38.3400  7.391474E-03 -57.5321
   38.4300  7.649925E-03 -60.9771
   38.5200  7.652207E-03 -64.5595
   38.6100  7.397207E-03 -68.0557
   38.7000  6.914003E-03 -71.2357
   38.7900  6.258044E-03 -73.8407
   38.8800  5.504925E-03 -75.5716
   38.9700  4.741319E-03 -76.0859
   39.0600  4.055352E-03 -75.0407
   39.1500  3.525941E-03 -72.2289
   39.2400  3.213734E-03 -67.8284
   39.3300  3.153820E-03 -62.6050
   39.4200  3.351788E-03 -57.7238
   39.5100  3.783341E-03 -54.1759
   39.6000  4.397010E-03 -52.3807
   39.6900  5.121055E-03 -52.2627
   39.7800  5.871557E-03 -53.5163
   39.8700  6.562336E-03 -55.7926
   39.9600  7.115052E-03 -58.7779
   40.0500  7.467219E-03 -62.2053
   40.1400  7.579155E-03 -65.8457
   40.2300  7.438335E-03 -69.4897
   40.3200  7.059603E-03 -72.9294
   40.4100  6.484482E-03 -75.9371
   40.5000  5.775556E-03 -78.2497
   40.5900  5.010220E-03 -79.5532
   40.6800  4.272152E-03 -79.4932
   40.7700  3.642066E-03 -77.7380
   40.8600  3.188805E-03 -74.1605
   40.9500  2.961803E-03 -69.1175
   41.0400  2.985479E-03 -63.5774
   41.1300  3.256655E-03 -58.7651
   41.2200  3.745166E-03 -55.5366
   41.3100  4.397197E-03 -54.1314
   41.4000  5.141723E-03 -54.3605
   41.4900  5.898428E-03 -55.8818
   41.5800  6.586274E-03 -58.3488
   41.6700  7.132193E-03 -61.4645
   41.7600  7.478788E-03 -64.9819
   41.8500  7.589634E-03 -68.6900
   41.9400  7.453196E-03 -72.3971
   42.0300  7.083580E-03 -75.9110
   42.1200  6.518806E-03 -79.0237
   42.2100  5.817049E-03 -81.4897
   42.3000  5.050607E-03 -83.0145
   42.3900  4.298717E-03 -83.2488
   42.4800  3.638970E-03 -81.8373
   42.5700  3.139725E-03 -78.5611
   42.6600  2.852829E-03 -73.6129
   42.7500  2.808007E-03 -67.8180
   42.8400  3.010103E-03 -62.4308
   42.9300  3.438511E-03 -58.4858
   43.0200  4.049619E-03 -56.3941
   43.1100  4.781223E-03 -56.0501
   43.2000  5.559797E-03 -57.1257
   43.2900  6.307144E-03 -59.2629
   43.3800  6.949109E-03 -62.1521
   43.4700  7.422499E-03 -65.5362
   43.5600  7.681240E-03 -69.2055
   43.6500  7.700087E-03 -72.9767
   43.7400  7.477234E-03 -76.6780
   43.8300  7.034598E-03 -80.1301
   43.9200  6.414992E-03 -83.1332
   44.0100  5.678467E-03 -85.4455
   44.1000  4.896383E-03 -86.7714
   44.1900  4.144603E-03 -86.7613
   44.2800  3.496403E-03 -85.0597
   44.3700  3.015242E-03 -81.4615
   44.4600  2.748194E-03 -76.1961
   44.5500  2.722173E-03 -70.1465
   44.6400  2.940415E-03 -64.5948
   44.7300  3.382788E-03 -60.5583
   44.8200  4.007936E-03 -58.4081
   44.9100  4.756936E-03 -58.0105
   45.0000  5.559850E-03 -59.0273
   45.0900  6.342166E-03 -61.1031
   45.1800  7.031609E-03 -63.9331
   45.2700  7.565154E-03 -67.2698
   45.3600  7.894476E-03 -70.9137
   45.4500  7.989892E-03 -74.6933
   45.5400  7.843113E-03 -78.4538
   45.6300  7.467632E-03 -82.0366
   45.7200  6.897730E-03 -85.2702
   45.8100  6.184770E-03 -87.9494
   45.9000  5.393544E-03 -89.8210
   45.9900  4.595623E-03 -90.5736
   46.0800  3.863849E-03 -89.8481
   46.1700  3.265118E-03 -87.3174
   46.2600  2.854604E-03 -82.8907
   46.3500  2.670795E-03 -77.0161
   46.4400  2.731608E-03 -70.7822
   46.5300  3.033120E-03 -65.4630
   46.6200  3.549990E-03 -61.8716
   46.7100  4.237576E-03 -60.1720
   46.8000  5.036662E-03 -60.1317
   46.8900  5.878374E-03 -61.3937
   46.9800  6.690645E-03 -63.6180
   47.0700  7.404456E-03 -66.5256
   47.1600  7.959469E-03 -69.8928
   47.2500  8.309384E-03 -73.5394
   47.3400  8.425110E-03 -77.3137
   47.4300  8.297579E-03 -81.0764
   47.5200  7.937834E-03 -84.6876
   47.6100  7.376375E-03 -87.9962
   47.7000  6.660315E-03 -90.8221
   47.7900  5.849906E-03 -92.9442
   47.8800  5.013464E-03 -94.0845
   47.9700  4.221825E-03 -93.9065
   48.0600  3.542500E-03 -92.0575
   48.1500  3.033796E-03 -88.3089
   48.2400  2.740064E-03 -82.8278
   48.3300  2.687916E-03 -76.4230
   48.4200  2.883799E-03 -70.3608
   48.5100  3.313817E-03 -65.7260
   48.6000  3.944608E-03 -62.9696
   48.6900  4.726543E-03 -62.0074
   48.7800  5.597787E-03 -62.5208
   48.8700  6.489883E-03 -64.1583
   48.9600  7.332829E-03 -66.6155
   49.0500  8.061190E-03 -69.6503
   49.1400  8.618739E-03 -73.0715
   49.2300  8.962640E-03 -76.7239
   49.3200  9.067222E-03 -80.4758
   49.4100  8.924901E-03 -84.2048
   49.5000  8.547147E-03 -87.7889
   49.5900  7.963358E-03 -91.0944
   49.6800  7.219032E-03 -93.9616
   49.7700  6.371744E-03 -96.1945
   49.8600  5.487396E-03 -97.5447
   49.9500  4.635218E-03 -97.7041
   50.0400  3.882267E-03 -96.3261
   50.1300  3.288504E-03 -93.1227
   50.2200  2.901952E-03 -88.0818
   50.3100  2.754839E-03 -81.7553
   50.4000  2.861479E-03 -75.2756
   50.4900  3.216621E-03 -69.8505
   50.5800  3.796224E-03 -66.1820
   50.6700  4.559272E-03 -64.3627
   50.7600  5.451293E-03 -64.1429
   50.8500  6.408550E-03 -65.1793
   50.9400  7.362485E-03 -67.1530
   51.0300  8.245292E-03 -69.8063
   51.1200  8.994789E-03 -72.9347
   51.2100  9.558525E-03 -76.3786
   51.3000  9.897468E-03 -80.0088
   51.3900  9.988502E-03 -83.7105
   51.4800  9.825904E-03 -87.3811
   51.5700  9.421802E-03 -90.9124
   51.6600  8.804859E-03 -94.1892
   51.7500  8.018719E-03 -97.0723
   51.8400  7.119612E-03 -99.3910
   51.9300  6.170994E-03 -100.928
   52.0200  5.240916E-03 -101.410
   52.1100  4.396569E-03 -100.514
   52.2000  3.699528E-03 -97.9238
   52.2900  3.201647E-03 -93.4927
   52.3800  2.941067E-03 -87.5028
   52.4700  2.939630E-03 -80.8434
   52.5600  3.201307E-03 -74.7304
   52.6500  3.711647E-03 -70.1025
   52.7400  4.439228E-03 -67.2975
   52.8300  5.337663E-03 -66.1945
   52.9200  6.349539E-03 -66.4867
   53.0100  7.409415E-03 -67.8482
   53.1000  8.449399E-03 -70.0031
   53.1900  9.403130E-03 -72.7332
   53.2800  1.021037E-02 -75.8656
   53.3700  1.082016E-02 -79.2675
   53.4600  1.119471E-02 -82.8279
   53.5500  1.131120E-02 -86.4504
   53.6400  1.116293E-02 -90.0462
   53.7300  1.076009E-02 -93.5262
   53.8200  1.012849E-02 -96.7917
   53.9100  9.308876E-03 -99.7281
   54.0000  8.353695E-03 -102.195
   54.0900  7.324326E-03 -104.015
   54.1800  6.287355E-03 -104.960
   54.2700  5.310704E-03 -104.751
   54.3600  4.458653E-03 -103.076
   54.4500  3.788767E-03 -99.6777
   54.5400  3.347499E-03 -94.5438
   54.6300  3.166778E-03 -88.1515
   54.7200  3.263016E-03 -81.5082
   54.8100  3.634787E-03 -75.7387
   54.9000  4.263755E-03 -71.5594
   54.9900  5.115833E-03 -69.1366
   55.0800  6.142721E-03 -68.2842
   55.1700  7.286091E-03 -68.6976
   55.2600  8.480686E-03 -70.0809
   55.3500  9.658525E-03 -72.1859
   55.4400  1.075288E-02 -74.8186
   55.5300  1.170212E-02 -77.8278
   55.6200  1.245333E-02 -81.0951
   55.7100  1.296484E-02 -84.5227
   55.8000  1.320914E-02 -88.0282
   55.8900  1.317338E-02 -91.5368
   55.9800  1.286007E-02 -94.9742
   56.0700  1.228786E-02 -98.2634
   56.1600  1.148938E-02 -101.316
   56.2500  1.051002E-02 -104.028
   56.3400  9.406093E-03 -106.269
   56.4300  8.241154E-03 -107.873
   56.5200  7.082789E-03 -108.630
   56.6100  5.999132E-03 -108.282
   56.7000  5.054857E-03 -106.541
   56.7900  4.307686E-03 -103.169
   56.8800  3.804803E-03 -98.1364
   56.9700  3.579993E-03 -91.8504
   57.0600  3.651895E-03 -85.2025
   57.1500  4.022855E-03 -79.2513
   57.2400  4.678043E-03 -74.7363
   57.3300  5.587839E-03 -71.8916
   57.4200  6.707669E-03 -70.5900
   57.5100  7.982781E-03 -70.5627
   57.6000  9.349304E-03 -71.5292
   57.6900  1.073936E-02 -73.2487
   57.7800  1.208415E-02 -75.5287
   57.8700  1.331697E-02 -78.2196
   57.9600  1.437793E-02 -81.2054
   58.0500  1.521530E-02 -84.3923
   58.1400  1.578924E-02 -87.7041
   58.2300  1.607225E-02 -91.0750
   58.3200  1.605201E-02 -94.4437
   58.4100  1.573023E-02 -97.7507
   58.5000  1.512310E-02 -100.935
   58.5900  1.426173E-02 -103.925
   58.6800  1.318828E-02 -106.640
   58.7700  1.195751E-02 -108.978
   58.8600  1.063065E-02 -110.812
   58.9500  9.276089E-03 -111.980
   59.0400  7.963277E-03 -112.281
   59.1300  6.761491E-03 -111.471
   59.2200  5.734730E-03 -109.295
   59.3100  4.940063E-03 -105.567
   59.4000  4.423560E-03 -100.327
   59.4900  4.218175E-03 -94.0203
   59.5800  4.341565E-03 -87.4966
   59.6700  4.796018E-03 -81.6983
   59.7600  5.567383E-03 -77.2591
   59.8500  6.626388E-03 -74.3742
   59.9400  7.929903E-03 -72.9309
   60.0300  9.423188E-03 -72.6879
   60.1200  1.104302E-02 -73.3944
   60.2100  1.272049E-02 -74.8291
   60.3000  1.438505E-02 -76.8157
   60.3900  1.596520E-02 -79.2138
   60.4800  1.739563E-02 -81.9167
   60.5700  1.861697E-02 -84.8377
   60.6600  1.957871E-02 -87.9075
   60.7500  2.024214E-02 -91.0682
   60.8400  2.058115E-02 -94.2690
   60.9300  2.058185E-02 -97.4622
   61.0200  2.024551E-02 -100.602
   61.1100  1.958762E-02 -103.641
   61.2000  1.863600E-02 -106.524
   61.2900  1.743084E-02 -109.190
   61.3800  1.602421E-02 -111.563
   61.4700  1.447697E-02 -113.550
   61.5600  1.285626E-02 -115.034
   61.6500  1.123430E-02 -115.864
   61.7400  9.684211E-03 -115.860
   61.8300  8.277408E-03 -114.805
   61.9200  7.080788E-03 -112.482
   62.0100  6.153603E-03 -108.740
   62.1000  5.544385E-03 -103.626
   62.1900  5.288960E-03 -97.5231
   62.2800  5.408769E-03 -91.1622
   62.3700  5.909915E-03 -85.3705
   62.4600  6.782033E-03 -80.7487
   62.5500  7.999951E-03 -77.5343
   62.6400  9.523870E-03 -75.6707
   62.7300  1.130236E-02 -74.9689
   62.8200  1.327247E-02 -75.2082
   62.9100  1.536491E-02 -76.1831
   63.0000  1.750679E-02 -77.7273
   63.0900  1.962216E-02 -79.7057
   63.1800  2.163748E-02 -82.0133
   63.2700  2.348270E-02 -84.5665
   63.3600  2.509530E-02 -87.3000
   63.4500  2.642050E-02 -90.1590
   63.5400  2.741405E-02 -93.0997
   63.6300  2.804383E-02 -96.0811
   63.7200  2.828888E-02 -99.0694
   63.8100  2.814252E-02 -102.029
   63.9000  2.760997E-02 -104.926
   63.9900  2.671137E-02 -107.722
   64.0800  2.547767E-02 -110.377
   64.1700  2.395267E-02 -112.842
   64.2600  2.219037E-02 -115.058
   64.3500  2.025429E-02 -116.954
   64.4400  1.821472E-02 -118.441
   64.5300  1.614798E-02 -119.406
   64.6200  1.413275E-02 -119.709
   64.7100  1.224762E-02 -119.188
   64.8000  1.056859E-02 -117.656
   64.8900  9.166937E-03 -114.945
   64.9800  8.104890E-03 -110.970
   65.0700  7.433522E-03 -105.831
   65.1600  7.191908E-03 -99.9164
   65.2500  7.404380E-03 -93.8588
   65.3400  8.078794E-03 -88.3415
   65.4300  9.207604E-03 -83.8552
   65.5200  1.076735E-02 -80.6032
   65.6100  1.271914E-02 -78.5596
   65.7000  1.501086E-02 -77.5728
   65.7900  1.758077E-02 -77.4611
   65.8800  2.035598E-02 -78.0489
   65.9700  2.325835E-02 -79.1876
   66.0600  2.620705E-02 -80.7557
   66.1500  2.911976E-02 -82.6561
   66.2400  3.191626E-02 -84.8120
   66.3300  3.451917E-02 -87.1617
   66.4200  3.686048E-02 -89.6571
   66.5100  3.887531E-02 -92.2577
   66.6000  4.051369E-02 -94.9285
   66.6900  4.173177E-02 -97.6409
   66.7800  4.249897E-02 -100.370
   66.8700  4.279522E-02 -103.090
   66.9600  4.261610E-02 -105.778
   67.0500  4.196557E-02 -108.410
   67.1400  4.086103E-02 -110.960
   67.2300  3.933534E-02 -113.400
   67.3200  3.742842E-02 -115.696
   67.4100  3.519427E-02 -117.809
   67.5000  3.269691E-02 -119.691
   67.5900  3.000654E-02 -121.284
   67.6800  2.720525E-02 -122.514
   67.7700  2.437850E-02 -123.293
   67.8600  2.161420E-02 -123.513
   67.9500  1.900524E-02 -123.044
   68.0400  1.664041E-02 -121.745
   68.1300  1.460500E-02 -119.477
   68.2200  1.297784E-02 -116.148
   68.3100  1.182798E-02 -111.776
   68.4000  1.121279E-02 -106.565
   68.4900  1.117518E-02 -100.921
   68.5800  1.174107E-02 -95.3873
   68.6700  1.292090E-02 -90.4602
   68.7600  1.470695E-02 -86.4669
   68.8500  1.707278E-02 -83.5258
   68.9400  1.997666E-02 -81.5992
   69.0300  2.336247E-02 -80.5665
   69.1200  2.716189E-02 -80.2845
   69.2100  3.129130E-02 -80.6152
   69.3000  3.566809E-02 -81.4370
   69.3900  4.019323E-02 -82.6488
   69.4800  4.477590E-02 -84.1695
   69.5700  4.931535E-02 -85.9317
   69.6600  5.372447E-02 -87.8841
   69.7500  5.790881E-02 -89.9807
   69.8400  6.178854E-02 -92.1888
   69.9300  6.528681E-02 -94.4782
   70.0200  6.833906E-02 -96.8258
   70.1100  7.088681E-02 -99.2120
   70.2000  7.288395E-02 -101.617
   70.2900  7.429186E-02 -104.025
   70.3800  7.508688E-02 -106.423
   70.4700  7.525341E-02 -108.794
   70.5600  7.478999E-02 -111.124
   70.6500  7.370524E-02 -113.398
   70.7400  7.201556E-02 -115.599
   70.8300  6.975871E-02 -117.705
   70.9200  6.697758E-02 -119.697
   71.0100  6.372405E-02 -121.545
   71.1000  6.007168E-02 -123.220
   71.1900  5.609915E-02 -124.679
   71.2800  5.189327E-02 -125.877
   71.3700  4.755460E-02 -126.754
   71.4600  4.319704E-02 -127.241
   71.5500  3.892905E-02 -127.253
   71.6400  3.487627E-02 -126.695
   71.7300  3.115588E-02 -125.461
   71.8200  2.789331E-02 -123.455
   71.9100  2.520413E-02 -120.606
   72.0000  2.319594E-02 -116.912
   72.0900  2.196498E-02 -112.484
   72.1800  2.159375E-02 -107.574
   72.2700  2.214418E-02 -102.540
   72.3600  2.366047E-02 -97.7750
   72.4500  2.615860E-02 -93.6045
   72.5400  2.963413E-02 -90.2219
   72.6300  3.405931E-02 -87.6845
   72.7200  3.938454E-02 -85.9569
   72.8100  4.553107E-02 -84.9539
   72.9000  5.241421E-02 -84.5699
   72.9900  5.992521E-02 -84.7007
   73.0800  6.794772E-02 -85.2521
   73.1700  7.635178E-02 -86.1436
   73.2600  8.501136E-02 -87.3087
   73.3500  9.379660E-02 -88.6916
   73.4400  0.102571 -90.2460
   73.5300  0.111217 -91.9348
   73.6200  0.119607 -93.7284
   73.7100  0.127636 -95.6014
   73.8000  0.135203 -97.5340
   73.8900  0.142207 -99.5074
   73.9800  0.148571 -101.509
   74.0700  0.154216 -103.524
   74.1600  0.159080 -105.546
   74.2500  0.163107 -107.563
   74.3400  0.166243 -109.567
   74.4300  0.168464 -111.552
   74.5200  0.169731 -113.507
   74.6100  0.170022 -115.425
   74.7000  0.169335 -117.297
   74.7900  0.167660 -119.113
   74.8800  0.165020 -120.861
   74.9700  0.161418 -122.529
   75.0600  0.156906 -124.098
   75.1500  0.151543 -125.548
   75.2400  0.145400 -126.856
   75.3300  0.138554 -127.990
   75.4200  0.131155 -128.914
   75.5100  0.123339 -129.583
   75.6000  0.115284 -129.944
   75.6900  0.107193 -129.936
   75.7800  9.931576E-02 -129.491
   75.8700  9.191275E-02 -128.537
   75.9600  8.527700E-02 -127.012
   76.0500  7.972476E-02 -124.877
   76.1400  7.556012E-02 -122.130
   76.2300  7.310382E-02 -118.849
   76.3200  7.264425E-02 -115.196
   76.4100  7.442966E-02 -111.397
   76.5000  7.865913E-02 -107.722
   76.5900  8.546430E-02 -104.412
   76.6800  9.489220E-02 -101.650
   76.7700  0.106899 -99.5265
   76.8600  0.121376 -98.0530
   76.9500  0.138117 -97.1926
   77.0400  0.156882 -96.8750
   77.1300  0.177306 -97.0185
   77.2200  0.199091 -97.5439
   77.3100  0.221884 -98.3764
   77.4000  0.245318 -99.4498
   77.4900  0.269102 -100.713
   77.5800  0.292909 -102.116
   77.6700  0.316488 -103.621
   77.7600  0.339618 -105.199
   77.8500  0.362127 -106.825
   77.9400  0.383861 -108.476
   78.0300  0.404746 -110.142
   78.1200  0.424699 -111.806
   78.2100  0.443670 -113.460
   78.3000  0.461657 -115.097
   78.3900  0.478632 -116.714
   78.4800  0.494656 -118.302
   78.5700  0.509717 -119.861
   78.6600  0.523844 -121.390
   78.7500  0.537092 -122.887
   78.8400  0.549515 -124.351
   78.9300  0.561130 -125.781
   79.0200  0.572036 -127.179
   79.1100  0.582152 -128.544
   79.2000  0.591623 -129.877
   79.2900  0.600509 -131.178
   79.3800  0.608809 -132.448
   79.4700  0.616575 -133.689
   79.5600  0.623810 -134.900
   79.6500  0.630602 -136.083
   79.7400  0.636936 -137.240
   79.8300  0.642864 -138.369
   79.9200  0.648414 -139.474
   80.0100  0.653618 -140.554
   80.1000  0.658480 -141.610
   80.1900  0.663041 -142.643
   80.2800  0.667311 -143.654
   80.3700  0.671320 -144.644
   80.4600  0.675079 -145.613
   80.5500  0.678596 -146.562
   80.6400  0.681917 -147.492
   80.7300  0.685016 -148.403
   80.8200  0.687929 -149.296
   80.9100  0.690669 -150.172
   81.0000  0.693238 -151.030
   81.0900  0.695660 -151.872
   81.1800  0.697930 -152.698
   81.2700  0.700072 -153.509
   81.3600  0.702073 -154.304
   81.4500  0.703951 -155.085
   81.5400  0.705721 -155.852
   81.6300  0.707390 -156.604
   81.7200  0.708953 -157.344
   81.8100  0.710429 -158.070
   81.9000  0.711813 -158.783
   81.9900  0.713108 -159.484
   82.0800  0.714324 -160.172
   82.1700  0.715470 -160.849
   82.2600  0.716536 -161.513
   82.3500  0.717544 -162.167
   82.4400  0.718491 -162.809
   82.5300  0.719372 -163.440
   82.6200  0.720206 -164.060
   82.7100  0.720977 -164.670
   82.8000  0.721700 -165.269
   82.8900  0.722381 -165.858
   82.9800  0.723011 -166.438
   83.0700  0.723592 -167.007
   83.1600  0.724147 -167.566
   83.2500  0.724654 -168.117
   83.3400  0.725128 -168.657
   83.4300  0.725563 -169.189
   83.5200  0.725980 -169.711
   83.6100  0.726348 -170.225
   83.7000  0.726696 -170.729
   83.7900  0.727014 -171.225
   83.8800  0.727305 -171.712
   83.9700  0.727571 -172.190
   84.0600  0.727812 -172.660
   84.1500  0.728038 -173.122
   84.2400  0.728232 -173.575
   84.3300  0.728405 -174.021
   84.4200  0.728568 -174.458
   84.5100  0.728712 -174.887
   84.6000  0.728838 -175.308
   84.6900  0.728945 -175.721
   84.7800  0.729040 -176.127
   84.8700  0.729117 -176.525
   84.9600  0.729180 -176.915
   85.0500  0.729233 -177.297
   85.1400  0.729279 -177.672
   85.2300  0.729301 -178.039
   85.3200  0.729322 -178.399
   85.4100  0.729336 -178.751
   85.5000  0.729338 -179.097
   85.5900  0.729325 -179.434
   85.6800  0.729315 -179.764
   85.7700  0.729292  179.912
   85.8600  0.729254  179.596
   85.9500  0.729215  179.288
   86.0400  0.729177  178.986
   86.1300  0.729129  178.692
   86.2200  0.729074  178.404
   86.3100  0.729020  178.124
   86.4000  0.728957  177.850
   86.4900  0.728893  177.584
   86.5800  0.728824  177.325
   86.6700  0.728757  177.073
   86.7600  0.728685  176.828
   86.8500  0.728609  176.589
   86.9400  0.728533  176.357
   87.0300  0.728456  176.133
   87.1200  0.728374  175.915
   87.2100  0.728302  175.704
   87.3000  0.728219  175.500
   87.3900  0.728141  175.303
   87.4800  0.728062  175.112
   87.5700  0.727977  174.928
   87.6600  0.727906  174.751
   87.7500  0.727827  174.581
   87.8400  0.727750  174.417
   87.9300  0.727680  174.261
   88.0200  0.727603  174.111
   88.1100  0.727531  173.968
   88.2000  0.727463  173.831
   88.2900  0.727397  173.701
   88.3800  0.727332  173.578
   88.4700  0.727276  173.462
   88.5600  0.727213  173.352
   88.6500  0.727162  173.249
   88.7400  0.727103  173.152
   88.8300  0.727055  173.063
   88.9200  0.727005  172.979
   89.0100  0.726967  172.903
   89.1000  0.726925  172.833
   89.1900  0.726889  172.770
   89.2800  0.726855  172.714
   89.3700  0.726824  172.664
   89.4600  0.726802  172.621
   89.5500  0.726777  172.584
   89.6400  0.726765  172.554
   89.7300  0.726747  172.531
   89.8200  0.726739  172.515
   89.9100  0.726728  172.505
   90.0000  0.726729  172.501