 Cr/Sc d=3.5nm s=0.2nm N=40 at 350.eV, P=1.
 Angle (deg), Reflectivity, Phase(deg)
   0.000000  1.00000  180.000
   0.100000  0.990842  178.004
   0.200000  0.981759  176.007
   0.300000  0.972740  174.009
   0.400000  0.963774  172.009
   0.500000  0.954853  170.006
   0.600000  0.945966  167.999
   0.700000  0.937104  165.988
   0.800000  0.928259  163.973
   0.900000  0.919418  161.951
   1.00000  0.910575  159.923
   1.10000  0.901720  157.888
   1.20000  0.892840  155.844
   1.30000  0.883931  153.792
   1.40000  0.874977  151.730
   1.50000  0.865972  149.657
   1.60000  0.856901  147.572
   1.70000  0.847757  145.475
   1.80000  0.838527  143.364
   1.90000  0.829200  141.239
   2.00000  0.819760  139.098
   2.10000  0.810194  136.939
   2.20000  0.800490  134.763
   2.30000  0.790629  132.567
   2.40000  0.780600  130.351
   2.50000  0.770376  128.111
   2.60000  0.759944  125.848
   2.70000  0.749281  123.560
   2.80000  0.738362  121.244
   2.90000  0.727165  118.899
   3.00000  0.715659  116.522
   3.10000  0.703814  114.113
   3.20000  0.691597  111.667
   3.30000  0.678968  109.184
   3.40000  0.665888  106.660
   3.50000  0.652306  104.092
   3.60000  0.638174  101.478
   3.70000  0.623432  98.8150
   3.80000  0.608010  96.0986
   3.90000  0.591836  93.3263
   4.00000  0.574829  90.4948
   4.10000  0.556883  87.6001
   4.20000  0.537919  84.6413
   4.30000  0.517820  81.6162
   4.40000  0.496476  78.5247
   4.50000  0.473770  75.3689
   4.60000  0.449636  72.1571
   4.70000  0.423992  68.8996
   4.80000  0.396866  65.6176
   4.90000  0.368406  62.3441
   5.00000  0.338930  59.1241
   5.10000  0.308922  56.0122
   5.20000  0.279106  53.0722
   5.30000  0.250257  50.3610
   5.40000  0.223131  47.9215
   5.50000  0.198280  45.7727
   5.60000  0.175975  43.9101
   5.70000  0.156268  42.3133
   5.80000  0.139029  40.9535
   5.90000  0.124018  39.7997
   6.00000  0.110992  38.8200
   6.10000  9.967057E-02  37.9840
   6.20000  8.979797E-02  37.2720
   6.30000  8.117975E-02  36.6731
   6.40000  7.365660E-02  36.1670
   6.50000  6.706136E-02  35.7233
   6.60000  6.120761E-02  35.3319
   6.70000  5.598910E-02  35.0111
   6.80000  5.137457E-02  34.7677
   6.90000  4.732386E-02  34.5619
   7.00000  4.371203E-02  34.3472
   7.10000  4.040048E-02  34.1389
   7.20000  3.736086E-02  34.0014
   7.30000  3.465311E-02  33.9575
   7.40000  3.230040E-02  33.9330
   7.50000  3.019750E-02  33.8374
   7.60000  2.820033E-02  33.6868
   7.70000  2.627712E-02  33.6026
   7.80000  2.452509E-02  33.6689
   7.90000  2.303424E-02  33.8103
   8.00000  2.176073E-02  33.8539
   8.10000  2.055128E-02  33.7324
   8.20000  1.930228E-02  33.5831
   8.30000  1.806704E-02  33.6139
   8.40000  1.698988E-02  33.8681
   8.50000  1.613883E-02  34.1425
   8.60000  1.542255E-02  34.1870
   8.70000  1.467644E-02  33.9857
   8.80000  1.382876E-02  33.7985
   8.90000  1.297003E-02  33.9144
   9.00000  1.225873E-02  34.3431
   9.10000  1.175489E-02  34.7597
   9.20000  1.135575E-02  34.8178
   9.30000  1.089324E-02  34.5157
   9.40000  1.029469E-02  34.2203
   9.50000  9.651995E-03  34.3377
   9.60000  9.129689E-03  34.9178
   9.70000  8.808035E-03  35.5402
   9.80000  8.602254E-03  35.7035
   9.90000  8.342357E-03  35.3265
   10.0000  7.928527E-03  34.8358
   10.1000  7.422256E-03  34.8035
   10.2000  6.987546E-03  35.4428
   10.3000  6.740456E-03  36.3375
   10.4000  6.643487E-03  36.7778
   10.5000  6.538952E-03  36.4529
   10.6000  6.289176E-03  35.7332
   10.7000  5.896740E-03  35.3535
   10.8000  5.501280E-03  35.8293
   10.9000  5.255006E-03  36.9535
   11.0000  5.190276E-03  37.8675
   11.1000  5.191756E-03  37.8655
   11.2000  5.096293E-03  37.0483
   11.3000  4.832051E-03  36.1918
   11.4000  4.478209E-03  36.1595
   11.5000  4.196306E-03  37.2191
   11.6000  4.093008E-03  38.6598
   11.7000  4.131250E-03  39.3458
   11.8000  4.161746E-03  38.8122
   11.9000  4.048228E-03  37.6017
   12.0000  3.778967E-03  36.7837
   12.1000  3.474878E-03  37.2238
   12.2000  3.289484E-03  38.8358
   12.3000  3.282325E-03  40.4240
   12.4000  3.372079E-03  40.7529
   12.5000  3.403232E-03  39.6998
   12.6000  3.272186E-03  38.1944
   12.7000  3.009607E-03  37.5114
   12.8000  2.753982E-03  38.4580
   12.9000  2.640515E-03  40.5619
   13.0000  2.693248E-03  42.1962
   13.1000  2.807186E-03  42.1386
   13.2000  2.832479E-03  40.6130
   13.3000  2.692364E-03  38.8645
   13.4000  2.442599E-03  38.3307
   13.5000  2.226139E-03  39.7608
   13.6000  2.161098E-03  42.3134
   13.7000  2.249084E-03  43.9788
   13.8000  2.375183E-03  43.5732
   13.9000  2.397629E-03  41.6225
   14.0000  2.257237E-03  39.6269
   14.1000  2.021618E-03  39.1829
   14.2000  1.832209E-03  41.0351
   14.3000  1.795706E-03  44.0337
   14.4000  1.903081E-03  45.7927
   14.5000  2.037477E-03  45.1260
   14.6000  2.063744E-03  42.7889
   14.7000  1.930469E-03  40.4952
   14.8000  1.707803E-03  40.0172
   14.9000  1.533550E-03  42.1924
   15.0000  1.509476E-03  45.6675
   15.1000  1.625468E-03  47.6545
   15.2000  1.767946E-03  46.8545
   15.3000  1.805367E-03  44.1719
   15.4000  1.685875E-03  41.5000
   15.5000  1.474730E-03  40.8081
   15.6000  1.305344E-03  43.1522
   15.7000  1.280378E-03  47.1434
   15.8000  1.396505E-03  49.5547
   15.9000  1.547587E-03  48.7990
   16.0000  1.603217E-03  45.8341
   16.1000  1.504072E-03  42.7005
   16.2000  1.304476E-03  41.5718
   16.3000  1.132074E-03  43.8503
   16.4000  1.094802E-03  48.3604
   16.5000  1.202870E-03  51.4406
   16.6000  1.361892E-03  50.9731
   16.7000  1.441691E-03  47.8372
   16.8000  1.370206E-03  44.1869
   16.9000  1.184684E-03  42.3840
   17.0000  1.004392E-03  44.2647
   17.1000  9.449978E-04  49.1891
   17.2000  1.035876E-03  53.2013
   17.3000  1.199623E-03  53.3483
   17.4000  1.307659E-03  50.2300
   17.5000  1.271744E-03  46.0719
   17.6000  1.106201E-03  43.3885
   17.7000  9.171845E-04  44.4507
   17.8000  8.277241E-04  49.4901
   17.9000  8.908206E-04  54.6444
   18.0000  1.052409E-03  55.8295
   18.1000  1.189681E-03  53.0262
   18.2000  1.197350E-03  48.4692
   18.3000  1.061162E-03  44.7871
   18.4000  8.675446E-04  44.5915
   18.5000  7.431389E-04  49.1807
   18.6000  7.668741E-04  55.4963
   18.7000  9.150407E-04  58.2235
   18.8000  1.077863E-03  56.1763
   18.9000  1.135658E-03  51.4624
   19.0000  1.041459E-03  46.8035
   19.1000  8.531779E-04  45.0077
   19.2000  6.938275E-04  48.3566
   19.3000  6.671000E-04  55.4339
   19.4000  7.861640E-04  60.1965
   19.5000  9.645125E-04  59.5269
   19.6000  1.075098E-03  55.0647
   19.7000  1.037019E-03  49.6292
   19.8000  8.704968E-04  46.1059
   19.9000  6.833911E-04  47.4038
   20.0000  5.982851E-04  54.2315
   20.1000  6.693655E-04  61.2450
   20.2000  8.455062E-04  62.7635
   20.3000  1.004450E-03  59.1779
   20.4000  1.035116E-03  53.3626
   20.5000  9.123961E-04  48.2668
   20.6000  7.142266E-04  47.0000
   20.7000  5.699567E-04  52.0666
   20.8000  5.740473E-04  60.7474
   20.9000  7.224650E-04  65.3333
   21.0000  9.147997E-04  63.5331
   21.1000  1.020726E-03  57.9618
   21.2000  9.665652E-04  51.7234
   21.3000  7.845223E-04  47.8900
   21.4000  5.921697E-04  49.8059
   21.5000  5.153781E-04  58.2883
   21.6000  6.050976E-04  66.3704
   21.7000  8.028335E-04  67.5987
   21.8000  9.782761E-04  63.1921
   21.9000  1.014478E-03  56.4915
   22.0000  8.848664E-04  50.5776
   22.1000  6.714222E-04  48.8084
   22.2000  5.125487E-04  54.4185
   22.3000  5.130861E-04  64.8120
   22.4000  6.753657E-04  70.4361
   22.5000  8.962482E-04  68.5497
   22.6000  1.032872E-03  62.3440
   22.7000  9.952552E-04  55.1720
   22.8000  8.052005E-04  50.1730
   22.9000  5.839979E-04  51.1115
   23.0000  4.756323E-04  60.2533
   23.1000  5.541035E-04  70.5669
   23.2000  7.742397E-04  73.0927
   23.3000  9.986665E-04  68.7655
   23.4000  1.084676E-03  61.4097
   23.5000  9.757919E-04  54.2338
   23.6000  7.396049E-04  50.5971
   23.7000  5.270899E-04  54.6438
   23.8000  4.782146E-04  66.4525
   23.9000  6.319541E-04  75.1512
   24.0000  8.989916E-04  74.8043
   24.1000  1.115591E-03  68.7011
   24.2000  1.146141E-03  60.6504
   24.3000  9.697754E-04  53.7741
   24.4000  6.966683E-04  51.7896
   24.5000  5.020443E-04  59.0220
   24.6000  5.174302E-04  72.2806
   24.7000  7.460141E-04  78.6984
   24.8000  1.056610E-03  76.0303
   24.9000  1.262155E-03  68.6679
   25.0000  1.235845E-03  60.2106
   25.1000  9.924202E-04  53.7860
   25.2000  6.839164E-04  53.5587
   25.3000  5.098541E-04  63.7311
   25.4000  5.942390E-04  77.3810
   25.5000  9.048084E-04  81.5485
   25.6000  1.266830E-03  77.1272
   25.7000  1.466462E-03  68.8653
   25.8000  1.382246E-03  60.1513
   25.9000  1.064280E-03  54.1838
   26.0000  7.111707E-04  55.6092
   26.1000  5.545822E-04  68.2677
   26.2000  7.175070E-04  81.7199
   26.3000  1.131938E-03  84.0371
   26.4000  1.571037E-03  78.3365
   26.5000  1.780983E-03  69.4095
   26.6000  1.635753E-03  60.4799
   26.7000  1.221704E-03  54.8334
   26.8000  7.978627E-04  57.5873
   26.9000  6.489502E-04  72.2269
   27.0000  9.119350E-04  85.4143
   27.1000  1.481368E-03  86.4092
   27.2000  2.057292E-03  79.8018
   27.3000  2.315128E-03  70.3511
   27.4000  2.102213E-03  61.1608
   27.5000  1.543843E-03  55.5758
   27.6000  9.910522E-04  59.1251
   27.7000  8.280402E-04  75.2997
   27.8000  1.240992E-03  88.5597
   27.9000  2.084806E-03  88.7842
   28.0000  2.939526E-03  81.5560
   28.1000  3.340049E-03  71.6573
   28.2000  3.053086E-03  62.1020
   28.3000  2.243611E-03  56.2274
   28.4000  1.425056E-03  59.8676
   28.5000  1.196444E-03  77.1615
   28.6000  1.890359E-03  91.1001
   28.7000  3.331821E-03  91.0756
   28.8000  4.873527E-03  83.4296
   28.9000  5.722540E-03  73.0899
   29.0000  5.397762E-03  63.0168
   29.1000  4.072223E-03  56.4527
   29.2000  2.601565E-03  59.3837
   29.3000  2.162445E-03  77.3225
   29.4000  3.616632E-03  92.5750
   29.5000  6.908036E-03  92.6349
   29.6000  1.088763E-02  84.5487
   29.7000  1.376383E-02  73.5675
   29.8000  1.402299E-02  62.6396
   29.9000  1.143566E-02  54.8773
   30.0000  7.756537E-03  56.3918
   30.1000  6.771431E-03  74.5152
   30.2000  1.326167E-02  90.3786
   30.3000  3.076561E-02  88.7558
   30.4000  5.915370E-02  77.9020
   30.5000  9.392536E-02  63.3680
   30.6000  0.128162  47.4718
   30.7000  0.155530  31.2220
   30.8000  0.172063  15.0284
   30.9000  0.176394 -0.957785
   31.0000  0.168853 -16.7602
   31.1000  0.151099 -32.4038
   31.2000  0.125600 -47.8966
   31.3000  9.568916E-02 -63.0912
   31.4000  6.532650E-02 -77.5552
   31.5000  3.873861E-02 -90.2299
   31.6000  1.931319E-02 -98.5860
   31.7000  8.438371E-03 -96.7676
   31.8000  4.988011E-03 -79.5127
   31.9000  6.032207E-03 -65.2434
   32.0000  8.314155E-03 -65.8669
   32.1000  9.534331E-03 -74.2412
   32.2000  8.853622E-03 -85.3164
   32.3000  6.672853E-03 -96.3496
   32.4000  4.033893E-03 -104.585
   32.5000  1.976911E-03 -104.752
   32.6000  1.073545E-03 -88.3569
   32.7000  1.271895E-03 -67.7097
   32.8000  2.055115E-03 -63.9006
   32.9000  2.777972E-03 -70.5263
   33.0000  2.986742E-03 -81.0766
   33.1000  2.581893E-03 -92.4482
   33.2000  1.785607E-03 -102.264
   33.3000  9.735717E-04 -106.684
   33.4000  4.701536E-04 -97.3479
   33.5000  4.051130E-04 -72.8526
   33.6000  6.843074E-04 -61.2141
   33.7000  1.071469E-03 -64.5690
   33.8000  1.322942E-03 -74.0485
   33.9000  1.303065E-03 -85.4857
   34.0000  1.030108E-03 -96.5473
   34.1000  6.431915E-04 -104.535
   34.2000  3.182237E-04 -103.693
   34.3000  1.793017E-04 -84.1248
   34.4000  2.468502E-04 -61.7751
   34.5000  4.419822E-04 -58.6098
   34.6000  6.373475E-04 -65.7457
   34.7000  7.236699E-04 -76.6063
   34.8000  6.589912E-04 -88.2941
   34.9000  4.794340E-04 -98.6686
   35.0000  2.722070E-04 -104.316
   35.1000  1.281951E-04 -97.0704
   35.2000  9.845867E-05 -70.8286
   35.3000  1.748638E-04 -55.3544
   35.4000  3.007028E-04 -57.3667
   35.5000  4.029418E-04 -66.4896
   35.6000  4.284181E-04 -78.0148
   35.7000  3.663603E-04 -89.6504
   35.8000  2.488024E-04 -99.1970
   35.9000  1.308296E-04 -102.333
   36.0000  6.246610E-05 -88.7421
   36.1000  6.574388E-05 -60.7758
   36.2000  1.273409E-04 -51.2794
   36.3000  2.083625E-04 -56.1525
   36.4000  2.649591E-04 -66.3247
   36.5000  2.691720E-04 -78.1531
   36.6000  2.202672E-04 -89.6403
   36.7000  1.424021E-04 -98.4633
   36.8000  7.105161E-05 -99.4610
   36.9000  3.562867E-05 -81.0484
   37.0000  4.648945E-05 -53.8558
   37.1000  9.193739E-05 -47.9676
   37.2000  1.455749E-04 -54.3055
   37.3000  1.797345E-04 -64.9945
   37.4000  1.782001E-04 -76.9559
   37.5000  1.425495E-04 -88.3412
   37.6000  8.986657E-05 -96.7722
   37.7000  4.363608E-05 -96.6292
   37.8000  2.255944E-05 -75.7272
   37.9000  3.250427E-05 -49.0703
   38.0000  6.492934E-05 -44.6125
   38.1000  1.019423E-04 -51.4958
   38.2000  1.251013E-04 -62.3642
   38.3000  1.237167E-04 -74.3729
   38.4000  9.899685E-05 -85.7834
   38.5000  6.254013E-05 -94.2978
   38.6000  3.032373E-05 -94.4310
   38.7000  1.527785E-05 -73.6887
   38.8000  2.177513E-05 -45.9522
   38.9000  4.437426E-05 -40.9148
   39.0000  7.097452E-05 -47.5841
   39.1000  8.865909E-05 -58.3514
   39.2000  8.941968E-05 -70.3501
   39.3000  7.329857E-05 -81.9124
   39.4000  4.774750E-05 -90.9733
   39.5000  2.383522E-05 -92.7832
   39.6000  1.115469E-05 -75.2416
   39.7000  1.377186E-05 -44.9501
   39.8000  2.886675E-05 -36.9907
   39.9000  4.845050E-05 -42.5836
   40.0000  6.318007E-05 -52.9288
   40.1000  6.647124E-05 -64.8226
   40.2000  5.712174E-05 -76.5972
   40.3000  3.943747E-05 -86.4992
   40.4000  2.101660E-05 -90.8715
   40.5000  9.276603E-06 -79.5987
   40.6000  8.322002E-06 -47.7599
   40.7000  1.743467E-05 -33.5305
   40.8000  3.170639E-05 -36.7128
   40.9000  4.439311E-05 -46.1467
   41.0000  4.987128E-05 -57.7403
   41.1000  4.591970E-05 -69.6798
   41.2000  3.441442E-05 -80.4646
   41.3000  2.027832E-05 -87.5366
   41.4000  9.222224E-06 -83.9995
   41.5000  5.334782E-06 -56.9612
   41.6000  9.491786E-06 -32.4307
   41.7000  1.920476E-05 -30.6052
   41.8000  2.986538E-05 -38.2141
   41.9000  3.677156E-05 -49.1288
   42.0000  3.705463E-05 -61.0311
   42.1000  3.073715E-05 -72.5156
   42.2000  2.053419E-05 -81.8348
   42.3000  1.058078E-05 -85.0190
   42.4000  4.670084E-06 -71.0009
   42.5000  4.744791E-06 -38.2945
   42.6000  1.022877E-05 -25.9524
   42.7000  1.841293E-05 -29.7264
   42.8000  2.567740E-05 -39.1886
   42.9000  2.898676E-05 -50.6524
   43.0000  2.706498E-05 -62.4692
   43.1000  2.078999E-05 -73.3217
   43.2000  1.272048E-05 -81.0468
   43.3000  5.979661E-06 -79.9741
   43.4000  2.993623E-06 -56.7483
   43.5000  4.581760E-06 -27.5906
   43.6000  9.731047E-06 -22.3344
   43.7000  1.610139E-05 -28.5402
   43.8000  2.101370E-05 -38.7712
   43.9000  2.250924E-05 -50.3783
   44.0000  2.006367E-05 -62.0001
   44.1000  1.470677E-05 -72.3055
   44.2000  8.532972E-06 -78.7921
   44.3000  3.837639E-06 -74.5052
   44.4000  2.230046E-06 -46.3881
   44.5000  4.056551E-06 -21.2727
   44.6000  8.343306E-06 -19.0099
   44.7000  1.324106E-05 -26.1330
   44.8000  1.677151E-05 -36.5940
   44.9000  1.758198E-05 -48.1732
   45.0000  1.541386E-05 -59.6410
   45.1000  1.114156E-05 -69.6992
   45.2000  6.380520E-06 -75.7917
   45.3000  2.842938E-06 -70.7222
   45.4000  1.701265E-06 -41.6045
   45.5000  3.182387E-06 -17.0201
   45.6000  6.536880E-06 -15.0356
   45.7000  1.036768E-05 -22.1343
   45.8000  1.317861E-05 -32.4882
   45.9000  1.392392E-05 -43.9577
   46.0000  1.236742E-05 -55.3776
   46.1000  9.119402E-06 -65.5615
   46.2000  5.374383E-06 -72.2677
   46.3000  2.446496E-06 -69.2768
   46.4000  1.290937E-06 -42.8976
   46.5000  2.181522E-06 -14.6083
   46.6000  4.649085E-06 -10.2761
   46.7000  7.688166E-06 -16.4543
   46.8000  1.014104E-05 -26.3683
   46.9000  1.111757E-05 -37.6406
   47.0000  1.029325E-05 -49.0879
   47.1000  7.992370E-06 -59.6786
   47.2000  5.044257E-06 -67.7007
   47.3000  2.461767E-06 -68.7573
   47.4000  1.084917E-06 -50.4253
   47.5000  1.294406E-06 -16.2256
   47.6000  2.905757E-06 -5.41672
   47.7000  5.260746E-06 -9.26616
   47.8000  7.479151E-06 -18.2344
   47.9000  8.769730E-06 -29.1179
   48.0000  8.696826E-06 -40.5572
   48.1000  7.309997E-06 -51.6253
   48.2000  5.102042E-06 -61.1331
   48.3000  2.821762E-06 -66.4849
   48.4000  1.207132E-06 -59.9388
   48.5000  7.398856E-07 -27.8126
   48.6000  1.496194E-06 -3.05062
   48.7000  3.141750E-06 -1.33301
   48.8000  5.063364E-06 -8.27526
   48.9000  6.584716E-06 -18.3393
   49.0000  7.193488E-06 -29.5640
   49.1000  6.701259E-06 -40.9603
   49.2000  5.289315E-06 -51.6666
   49.3000  3.431203E-06 -60.3046
   49.4000  1.725798E-06 -63.3954
   49.5000  6.954982E-07 -49.9251
   49.6000  6.226095E-07 -12.1966
   49.7000  1.468848E-06  4.61084
   49.8000  2.903437E-06  2.71050
   49.9000  4.422960E-06 -5.47497
   50.0000  5.518939E-06 -15.9921
   50.1000  5.840220E-06 -27.3608
   50.2000  5.296142E-06 -38.7608
   50.3000  4.072896E-06 -49.3931
   50.4000  2.562896E-06 -57.8604
   50.5000  1.231426E-06 -60.4236
   50.6000  4.690976E-07 -44.4082
   50.7000  4.734693E-07 -3.60083
   50.8000  1.197202E-06  11.3908
   50.9000  2.373399E-06  8.51368
   51.0000  3.607751E-06 -5.481377E-02
   51.1000  4.504485E-06 -10.7383
   51.2000  4.788146E-06 -22.2164
   51.3000  4.380220E-06 -33.7689
   51.4000  3.416311E-06 -44.7084
   51.5000  2.192878E-06 -53.8983
   51.6000  1.074228E-06 -58.3127
   51.7000  3.779782E-07 -46.7817
   51.8000  2.839260E-07 -2.08482
   51.9000  7.860821E-07  18.6431
   52.0000  1.702421E-06  16.8620
   52.1000  2.736466E-06  8.53403
   52.2000  3.568803E-06 -2.12052
   52.3000  3.952007E-06 -13.6933
   52.4000  3.779243E-06 -25.5022
   52.5000  3.108923E-06 -37.0187
   52.6000  2.142020E-06 -47.4861
   52.7000  1.157337E-06 -55.1484
   52.8000  4.280767E-07 -53.7737
   52.9000  1.450209E-07 -17.0109
   53.0000  3.647061E-07  24.7940
   53.1000  9.993344E-07  27.9967
   53.2000  1.847313E-06  20.7858
   53.3000  2.654675E-06  10.4233
   53.4000  3.188659E-06 -1.16608
   53.5000  3.300536E-06 -13.2310
   53.6000  2.965288E-06 -25.3329
   53.7000  2.282477E-06 -37.0424
   53.8000  1.443983E-06 -47.6071
   53.9000  6.779115E-07 -54.9326
   54.0000  1.847503E-07 -49.1378
   54.1000  8.397937E-08  13.6088
   54.2000  3.845322E-07  40.7393
   54.3000  9.868253E-07  37.1259
   54.4000  1.713657E-06  27.5862
   54.5000  2.360669E-06  16.1549
   54.6000  2.751774E-06  3.95072
   54.7000  2.785166E-06 -8.56484
   54.8000  2.456708E-06 -21.1189
   54.9000  1.858529E-06 -33.4299
   55.0000  1.150422E-06 -45.0013
   55.1000  5.155015E-07 -54.4034
   55.2000  1.125991E-07 -53.5258
   55.3000  3.521632E-08  34.5518
   55.4000  2.900232E-07  57.3251
   55.5000  7.983566E-07  50.3075
   55.6000  1.419043E-06  39.3000
   55.7000  1.986995E-06  27.0682
   55.8000  2.355729E-06  14.3199
   55.9000  2.433487E-06  1.32373
   56.0000  2.204689E-06 -11.7820
   56.1000  1.731248E-06 -24.9042
   56.2000  1.134467E-06 -37.9216
   56.3000  5.624428E-07 -50.5811
   56.4000  1.533698E-07 -61.7063
   56.5000  1.205244E-09 -8.05408
   56.6000  1.344543E-07  81.3680
   56.7000  5.111798E-07  70.4094
   56.8000  1.031551E-06  57.7062
   56.9000  1.563908E-06  44.5579
   57.0000  1.977066E-06  31.2135
   57.1000  2.172568E-06  17.7409
   57.2000  2.106429E-06  4.14534
   57.3000  1.797921E-06 -9.60927
   57.4000  1.323961E-06 -23.6290
   57.5000  7.979443E-07 -38.1969
   57.6000  3.432688E-07 -54.2646
   57.7000  6.340368E-08 -78.0567
   57.8000  1.887046E-08  141.010
   57.9000  2.142573E-07  102.738
   58.0000  5.987034E-07  85.3563
   58.1000  1.079373E-06  70.3636
   58.2000  1.543368E-06  56.0731
   58.3000  1.884418E-06  42.0362
   58.4000  2.026211E-06  28.0568
   58.5000  1.939311E-06  13.9931
   58.6000  1.646458E-06 -0.323026
   58.7000  1.215668E-06 -15.1773
   58.8000  7.448416E-07 -31.2208
   58.9000  3.388352E-07 -50.4776
   59.0000  8.632733E-08 -83.1799
   59.1000  4.091045E-08 -178.222
   59.2000  2.100136E-07  130.013
   59.3000  5.544417E-07  107.678
   59.4000  9.977034E-07  90.7160
   59.5000  1.443240E-06  75.4661
   59.6000  1.795711E-06  60.9167
   59.7000  1.980757E-06  46.6429
   59.8000  1.960794E-06  32.3980
   59.9000  1.742095E-06  17.9505
   60.0000  1.372883E-06  2.98426
   60.1000  9.318692E-07 -13.1138
   60.2000  5.127794E-07 -31.8814
   60.3000  2.032336E-07 -58.6068
   60.4000  6.805481E-08 -115.148
   60.5000  1.356989E-07  173.547
   60.6000  3.933187E-07  140.673
   60.7000  7.896637E-07  120.264
   60.8000  1.245821E-06  103.632
   60.9000  1.671695E-06  88.5131
   61.0000  1.983329E-06  74.0909
   61.1000  2.120175E-06  59.9654
   61.2000  2.056049E-06  45.8728
   61.3000  1.804461E-06  31.5557
   61.4000  1.415357E-06  16.6588
   61.5000  9.654839E-07  0.499845
   61.6000  5.432065E-07 -18.5886
   61.7000  2.318987E-07 -45.8716
   61.8000  9.403346E-08 -98.7298
   61.9000  1.595840E-07 -163.555
   62.0000  4.205369E-07  162.652
   62.1000  8.326960E-07  141.684
   62.2000  1.323683E-06  124.977
   62.3000  1.806241E-06  110.050
   62.4000  2.194493E-06  95.9816
   62.5000  2.418994E-06  82.3411
   62.6000  2.439668E-06  68.8668
   62.7000  2.252521E-06  55.3399
   62.8000  1.890328E-06  41.5141
   62.9000  1.417450E-06  26.9850
   63.0000  9.181937E-07  10.9277
   63.1000  4.820487E-07 -8.82052
   63.2000  1.891978E-07 -39.6488
   63.3000  9.573722E-08 -101.176
   63.4000  2.248473E-07 -157.809
   63.5000  5.625272E-07  174.025
   63.6000  1.059666E-06  155.316
   63.7000  1.640292E-06  139.936
   63.8000  2.213634E-06  126.041
   63.9000  2.689345E-06  112.903
   64.0000  2.991395E-06  100.175
   64.1000  3.071175E-06  87.6495
   64.2000  2.914462E-06  75.1643
   64.3000  2.545084E-06  62.5579
   64.4000  2.020257E-06  49.5984
   64.5000  1.422729E-06  35.8580
   64.6000  8.475218E-07  20.3627
   64.7000  3.882584E-07  0.167978
   64.8000  1.219655E-07 -37.1896
   64.9000  9.841133E-08 -113.556
   65.0000  3.314599E-07 -158.001
   65.1000  7.975777E-07 -179.737
   65.2000  1.438519E-06  164.539
   65.3000  2.169153E-06  151.034
   65.4000  2.890920E-06  138.571
   65.5000  3.504661E-06  126.675
   65.6000  3.924573E-06  115.108
   65.7000  4.091289E-06  103.733
   65.8000  3.980247E-06  92.4522
   65.9000  3.604358E-06  81.1713
   66.0000  3.014068E-06  69.7772
   66.1000  2.290168E-06  58.0943
   66.2000  1.532159E-06  45.7676
   66.3000  8.467146E-07  31.9032
   66.4000  3.327669E-07  13.3867
   66.5000  6.839306E-08 -29.0480
   66.6000  1.004826E-07 -124.135
   66.7000  4.387043E-07 -157.335
   66.8000  1.053533E-06 -174.121
   66.9000  1.880114E-06  172.824
   67.0000  2.825600E-06  161.170
   67.1000  3.780750E-06  150.199
   67.2000  4.633822E-06  139.620
   67.3000  5.283425E-06  129.290
   67.4000  5.651154E-06  119.125
   67.5000  5.692014E-06  109.074
   67.6000  5.398164E-06  99.0945
   67.7000  4.802765E-06  89.1498
   67.8000  3.974451E-06  79.1914
   67.9000  3.009919E-06  69.1427
   68.0000  2.024276E-06  58.8575
   68.1000  1.136281E-06  47.9791
   68.2000  4.561805E-07  35.2647
   68.3000  7.316300E-08  11.8180
   68.4000  4.489576E-08 -123.971
   68.5000  3.912229E-07 -153.560
   68.6000  1.091721E-06 -166.655
   68.7000  2.087769E-06 -177.362
   68.8000  3.287806E-06  172.749
   68.9000  4.578239E-06  163.252
   69.0000  5.833025E-06  153.992
   69.1000  6.929139E-06  144.893
   69.2000  7.757499E-06  135.918
   69.3000  8.234436E-06  127.045
   69.4000  8.311288E-06  118.263
   69.5000  7.978142E-06  109.566
   69.6000  7.265396E-06  100.953
   69.7000  6.241866E-06  92.4234
   69.8000  5.007656E-06  83.9915
   69.9000  3.684391E-06  75.6775
   70.0000  2.405019E-06  67.5338
   70.1000  1.299875E-06  59.6975
   70.2000  4.857121E-07  52.6734
   70.3000  5.425547E-08  51.1259
   70.4000  6.390260E-08 -156.475
   70.5000  5.342847E-07 -158.552
   70.6000  1.444450E-06 -165.413
   70.7000  2.734598E-06 -172.946
   70.8000  4.310342E-06  179.337
   70.9000  6.051728E-06  171.564
   71.0000  7.823816E-06  163.790
   71.1000  9.485438E-06  156.040
   71.2000  1.090557E-05  148.331
   71.3000  1.196848E-05  140.672
   71.4000  1.258935E-05  133.076
   71.5000  1.271600E-05  125.552
   71.6000  1.233796E-05  118.113
   71.7000  1.148281E-05  110.775
   71.8000  1.021609E-05  103.565
   71.9000  8.639342E-06  96.5196
   72.0000  6.876856E-06  89.7048
   72.1000  5.069276E-06  83.2383
   72.2000  3.363841E-06  77.3643
   72.3000  1.902167E-06  72.6877
   72.4000  8.085851E-07  71.1513
   72.5000  1.838296E-07  83.5416
   72.6000  9.601936E-08  166.542
   72.7000  5.761265E-07 -165.827
   72.8000  1.615621E-06 -164.978
   72.9000  3.167347E-06 -168.711
   73.0000  5.149054E-06 -173.912
   73.1000  7.447647E-06 -179.739
   73.2000  9.928820E-06  174.130
   73.3000  1.244456E-05  167.843
   73.4000  1.484182E-05  161.482
   73.5000  1.697672E-05  155.092
   73.6000  1.871646E-05  148.707
   73.7000  1.995819E-05  142.349
   73.8000  2.062248E-05  136.037
   73.9000  2.066986E-05  129.790
   74.0000  2.009823E-05  123.626
   74.1000  1.893958E-05  117.571
   74.2000  1.726417E-05  111.651
   74.3000  1.517316E-05  105.910
   74.4000  1.279180E-05  100.408
   74.5000  1.026562E-05  95.2444
   74.6000  7.749454E-06  90.5949
   74.7000  5.396230E-06  86.7849
   74.8000  3.355948E-06  84.5280
   74.9000  1.761610E-06  85.6505
   75.0000  7.227470E-07  96.0297
   75.1000  3.218693E-07  132.996
   75.2000  6.086588E-07  176.004
   75.3000  1.598665E-06 -170.087
   75.4000  3.271412E-06 -167.639
   75.5000  5.573803E-06 -169.129
   75.6000  8.418942E-06 -172.299
   75.7000  1.169602E-05 -176.315
   75.8000  1.527113E-05  179.203
   75.9000  1.899602E-05  174.451
   76.0000  2.271460E-05  169.538
   76.1000  2.627369E-05  164.531
   76.2000  2.952105E-05  159.477
   76.3000  3.232320E-05  154.405
   76.4000  3.456166E-05  149.341
   76.5000  3.614423E-05  144.302
   76.6000  3.700713E-05  139.306
   76.7000  3.711735E-05  134.367
   76.8000  3.647216E-05  129.503
   76.9000  3.509912E-05  124.731
   77.0000  3.305916E-05  120.073
   77.1000  3.043714E-05  115.554
   77.2000  2.734247E-05  111.210
   77.3000  2.390477E-05  107.092
   77.4000  2.026588E-05  103.270
   77.5000  1.657504E-05  99.8524
   77.6000  1.298776E-05  97.0157
   77.7000  9.652294E-06  95.0569
   77.8000  6.711214E-06  94.5281
   77.9000  4.294421E-06  96.5172
   78.0000  2.511654E-06  103.349
   78.1000  1.453101E-06  119.469
   78.2000  1.185770E-06  146.678
   78.3000  1.750431E-06  171.185
   78.4000  3.161940E-06 -176.009
   78.5000  5.406831E-06 -170.817
   78.6000  8.449166E-06 -169.460
   78.7000  1.222730E-05 -170.109
   78.8000  1.665505E-05 -171.888
   78.9000  2.163609E-05 -174.350
   79.0000  2.704783E-05 -177.240
   79.1000  3.276567E-05  179.590
   79.2000  3.865024E-05  176.234
   79.3000  4.456284E-05  172.755
   79.4000  5.036107E-05  169.196
   79.5000  5.591402E-05  165.590
   79.6000  6.108781E-05  161.958
   79.7000  6.576873E-05  158.318
   79.8000  6.985052E-05  154.686
   79.9000  7.324409E-05  151.071
   80.0000  7.588066E-05  147.482
   80.1000  7.771230E-05  143.933
   80.2000  7.869873E-05  140.427
   80.3000  7.883493E-05  136.974
   80.4000  7.812125E-05  133.583
   80.5000  7.658967E-05  130.262
   80.6000  7.428092E-05  127.017
   80.7000  7.125333E-05  123.864
   80.8000  6.758445E-05  120.811
   80.9000  6.335998E-05  117.876
   81.0000  5.867577E-05  115.074
   81.1000  5.364172E-05  112.431
   81.2000  4.836181E-05  109.973
   81.3000  4.294862E-05  107.738
   81.4000  3.752399E-05  105.777
   81.5000  3.219681E-05  104.162
   81.6000  2.708095E-05  102.983
   81.7000  2.227365E-05  102.379
   81.8000  1.787804E-05  102.550
   81.9000  1.398412E-05  103.789
   82.0000  1.067140E-05  106.530
   82.1000  8.006911E-06  111.398
   82.2000  6.053003E-06  119.150
   82.3000  4.854115E-06  130.275
   82.4000  4.446183E-06  144.049
   82.5000  4.852483E-06  157.990
   82.6000  6.083280E-06  169.505
   82.7000  8.139897E-06  177.729
   82.8000  1.100968E-05 -176.912
   82.9000  1.467715E-05 -173.654
   83.0000  1.909999E-05 -171.862
   83.1000  2.425307E-05 -171.086
   83.2000  3.008323E-05 -171.021
   83.3000  3.653474E-05 -171.462
   83.4000  4.356452E-05 -172.273
   83.5000  5.109259E-05 -173.351
   83.6000  5.905791E-05 -174.628
   83.7000  6.739961E-05 -176.054
   83.8000  7.604182E-05 -177.589
   83.9000  8.491620E-05 -179.206
   84.0000  9.396424E-05  179.117
   84.1000  1.030997E-04  177.401
   84.2000  1.122704E-04  175.654
   84.3000  1.214089E-04  173.890
   84.4000  1.304454E-04  172.121
   84.5000  1.393492E-04  170.348
   84.6000  1.480485E-04  168.582
   84.7000  1.565041E-04  166.823
   84.8000  1.646667E-04  165.083
   84.9000  1.724930E-04  163.358
   85.0000  1.799721E-04  161.652
   85.1000  1.870664E-04  159.969
   85.2000  1.937252E-04  158.317
   85.3000  1.999671E-04  156.691
   85.4000  2.057636E-04  155.091
   85.5000  2.110983E-04  153.523
   85.6000  2.159868E-04  151.985
   85.7000  2.204074E-04  150.483
   85.8000  2.243663E-04  149.012
   85.9000  2.278782E-04  147.579
   86.0000  2.309377E-04  146.179
   86.1000  2.335663E-04  144.815
   86.2000  2.357722E-04  143.489
   86.3000  2.375770E-04  142.199
   86.4000  2.389955E-04  140.945
   86.5000  2.400490E-04  139.728
   86.6000  2.407563E-04  138.551
   86.7000  2.411468E-04  137.410
   86.8000  2.412284E-04  136.309
   86.9000  2.410470E-04  135.245
   87.0000  2.405986E-04  134.218
   87.1000  2.399275E-04  133.230
   87.2000  2.390509E-04  132.281
   87.3000  2.379861E-04  131.368
   87.4000  2.367682E-04  130.494
   87.5000  2.354184E-04  129.658
   87.6000  2.339470E-04  128.858
   87.7000  2.323673E-04  128.094
   87.8000  2.307343E-04  127.369
   87.9000  2.290426E-04  126.680
   88.0000  2.273079E-04  126.026
   88.1000  2.255571E-04  125.408
   88.2000  2.237961E-04  124.826
   88.3000  2.220627E-04  124.277
   88.4000  2.203437E-04  123.763
   88.5000  2.186721E-04  123.285
   88.6000  2.170525E-04  122.839
   88.7000  2.155040E-04  122.426
   88.8000  2.140180E-04  122.045
   88.9000  2.126254E-04  121.698
   89.0000  2.113393E-04  121.383
   89.1000  2.101260E-04  121.097
   89.2000  2.090383E-04  120.844
   89.3000  2.080690E-04  120.621
   89.4000  2.072046E-04  120.428
   89.5000  2.064652E-04  120.265
   89.6000  2.058725E-04  120.134
   89.7000  2.053969E-04  120.030
   89.8000  2.050506E-04  119.956
   89.9000  2.048587E-04  119.914
   90.0000  2.047869E-04  119.899