 Mo/Si d=3.5nm s=0.2nm N=40 at 350.eV, P=1.
 Angle (deg), Reflectivity, Phase(deg)
   0.000000  1.00000  180.000
   0.100000  0.969989  178.471
   0.200000  0.940863  176.942
   0.300000  0.912583  175.413
   0.400000  0.885110  173.884
   0.500000  0.858410  172.354
   0.600000  0.832447  170.824
   0.700000  0.807192  169.294
   0.800000  0.782614  167.763
   0.900000  0.758685  166.232
   1.00000  0.735380  164.700
   1.10000  0.712674  163.168
   1.20000  0.690542  161.635
   1.30000  0.668966  160.101
   1.40000  0.647921  158.567
   1.50000  0.627392  157.033
   1.60000  0.607355  155.497
   1.70000  0.587798  153.962
   1.80000  0.568707  152.426
   1.90000  0.550062  150.889
   2.00000  0.531852  149.352
   2.10000  0.514061  147.815
   2.20000  0.496680  146.278
   2.30000  0.479694  144.741
   2.40000  0.463098  143.204
   2.50000  0.446876  141.668
   2.60000  0.431023  140.132
   2.70000  0.415529  138.598
   2.80000  0.400388  137.065
   2.90000  0.385593  135.534
   3.00000  0.371137  134.005
   3.10000  0.357015  132.479
   3.20000  0.343224  130.956
   3.30000  0.329756  129.436
   3.40000  0.316612  127.922
   3.50000  0.303785  126.412
   3.60000  0.291276  124.909
   3.70000  0.279081  123.412
   3.80000  0.267199  121.923
   3.90000  0.255629  120.443
   4.00000  0.244372  118.972
   4.10000  0.233422  117.513
   4.20000  0.222787  116.065
   4.30000  0.212465  114.631
   4.40000  0.202455  113.212
   4.50000  0.192758  111.809
   4.60000  0.183379  110.424
   4.70000  0.174312  109.058
   4.80000  0.165559  107.712
   4.90000  0.157122  106.389
   5.00000  0.149003  105.089
   5.10000  0.141195  103.814
   5.20000  0.133701  102.565
   5.30000  0.126518  101.345
   5.40000  0.119643  100.154
   5.50000  0.113076  98.9932
   5.60000  0.106808  97.8642
   5.70000  0.100838  96.7679
   5.80000  9.516051E-02  95.7047
   5.90000  8.976533E-02  94.6761
   6.00000  8.464882E-02  93.6821
   6.10000  7.980158E-02  92.7234
   6.20000  7.521676E-02  91.8000
   6.30000  7.088581E-02  90.9117
   6.40000  6.679676E-02  90.0592
   6.50000  6.294198E-02  89.2418
   6.60000  5.931019E-02  88.4595
   6.70000  5.589347E-02  87.7112
   6.80000  5.267952E-02  86.9970
   6.90000  4.965874E-02  86.3161
   7.00000  4.682197E-02  85.6674
   7.10000  4.415835E-02  85.0505
   7.20000  4.165943E-02  84.4639
   7.30000  3.931388E-02  83.9078
   7.40000  3.711447E-02  83.3802
   7.50000  3.505195E-02  82.8805
   7.60000  3.311712E-02  82.4082
   7.70000  3.130285E-02  81.9618
   7.80000  2.960178E-02  81.5402
   7.90000  2.800569E-02  81.1433
   8.00000  2.650873E-02  80.7692
   8.10000  2.510444E-02  80.4172
   8.20000  2.378632E-02  80.0867
   8.30000  2.254873E-02  79.7770
   8.40000  2.138670E-02  79.4867
   8.50000  2.029490E-02  79.2156
   8.60000  1.926885E-02  78.9627
   8.70000  1.830432E-02  78.7270
   8.80000  1.739739E-02  78.5074
   8.90000  1.654379E-02  78.3043
   9.00000  1.574044E-02  78.1161
   9.10000  1.498376E-02  77.9428
   9.20000  1.427058E-02  77.7841
   9.30000  1.359851E-02  77.6383
   9.40000  1.296464E-02  77.5056
   9.50000  1.236668E-02  77.3850
   9.60000  1.180181E-02  77.2774
   9.70000  1.126856E-02  77.1804
   9.80000  1.076452E-02  77.0949
   9.90000  1.028805E-02  77.0198
   10.0000  9.837235E-03  76.9555
   10.1000  9.410656E-03  76.9008
   10.2000  9.006803E-03  76.8554
   10.3000  8.624208E-03  76.8192
   10.4000  8.261516E-03  76.7923
   10.5000  7.917630E-03  76.7739
   10.6000  7.591462E-03  76.7634
   10.7000  7.281763E-03  76.7619
   10.8000  6.987742E-03  76.7677
   10.9000  6.708420E-03  76.7810
   11.0000  6.442926E-03  76.8018
   11.1000  6.190493E-03  76.8294
   11.2000  5.950377E-03  76.8638
   11.3000  5.721810E-03  76.9054
   11.4000  5.504175E-03  76.9538
   11.5000  5.296916E-03  77.0081
   11.6000  5.099389E-03  77.0688
   11.7000  4.911146E-03  77.1347
   11.8000  4.731509E-03  77.2075
   11.9000  4.560156E-03  77.2856
   12.0000  4.396601E-03  77.3697
   12.1000  4.240396E-03  77.4601
   12.2000  4.091293E-03  77.5545
   12.3000  3.948770E-03  77.6546
   12.4000  3.812502E-03  77.7598
   12.5000  3.682153E-03  77.8703
   12.6000  3.557443E-03  77.9861
   12.7000  3.438147E-03  78.1067
   12.8000  3.323957E-03  78.2326
   12.9000  3.214655E-03  78.3627
   13.0000  3.109939E-03  78.4970
   13.1000  3.009533E-03  78.6361
   13.2000  2.913277E-03  78.7791
   13.3000  2.820919E-03  78.9282
   13.4000  2.732384E-03  79.0818
   13.5000  2.647505E-03  79.2398
   13.6000  2.566095E-03  79.4014
   13.7000  2.487894E-03  79.5672
   13.8000  2.412769E-03  79.7357
   13.9000  2.340501E-03  79.9097
   14.0000  2.271046E-03  80.0886
   14.1000  2.204346E-03  80.2726
   14.2000  2.140315E-03  80.4608
   14.3000  2.078809E-03  80.6521
   14.4000  2.019633E-03  80.8461
   14.5000  1.962606E-03  81.0432
   14.6000  1.907622E-03  81.2446
   14.7000  1.854644E-03  81.4523
   14.8000  1.803708E-03  81.6654
   14.9000  1.754787E-03  81.8828
   15.0000  1.707762E-03  82.1028
   15.1000  1.662462E-03  82.3237
   15.2000  1.618678E-03  82.5475
   15.3000  1.576326E-03  82.7757
   15.4000  1.535432E-03  83.0102
   15.5000  1.496062E-03  83.2521
   15.6000  1.458270E-03  83.4984
   15.7000  1.421965E-03  83.7468
   15.8000  1.386964E-03  83.9949
   15.9000  1.353053E-03  84.2438
   16.0000  1.320114E-03  84.4971
   16.1000  1.288200E-03  84.7583
   16.2000  1.257453E-03  85.0280
   16.3000  1.227979E-03  85.3036
   16.4000  1.199734E-03  85.5810
   16.5000  1.172521E-03  85.8566
   16.6000  1.146098E-03  86.1308
   16.7000  1.120312E-03  86.4080
   16.8000  1.095202E-03  86.6940
   16.9000  1.070958E-03  86.9915
   17.0000  1.047767E-03  87.2979
   17.1000  1.025657E-03  87.6058
   17.2000  1.004438E-03  87.9105
   17.3000  9.838160E-04  88.2099
   17.4000  9.635756E-04  88.5101
   17.5000  9.437173E-04  88.8192
   17.6000  9.244598E-04  89.1427
   17.7000  9.060744E-04  89.4796
   17.8000  8.886816E-04  89.8208
   17.9000  8.721338E-04  90.1563
   18.0000  8.561033E-04  90.4829
   18.1000  8.402754E-04  90.8055
   18.2000  8.245760E-04  91.1356
   18.3000  8.092131E-04  91.4834
   18.4000  7.945383E-04  91.8493
   18.5000  7.807959E-04  92.2248
   18.6000  7.679306E-04  92.5957
   18.7000  7.555993E-04  92.9529
   18.8000  7.433935E-04  93.2983
   18.9000  7.311060E-04  93.6467
   19.0000  7.188786E-04  94.0136
   19.1000  7.071173E-04  94.4061
   19.2000  6.962084E-04  94.8164
   19.3000  6.862466E-04  95.2260
   19.4000  6.769427E-04  95.6181
   19.5000  6.677987E-04  95.9896
   19.6000  6.584371E-04  96.3550
   19.7000  6.488624E-04  96.7354
   19.8000  6.394649E-04  97.1478
   19.9000  6.307760E-04  97.5895
   20.0000  6.230906E-04  98.0400
   20.1000  6.162641E-04  98.4739
   20.2000  6.097708E-04  98.8780
   20.3000  6.030462E-04  99.2614
   20.4000  5.958716E-04  99.6508
   20.5000  5.885281E-04  100.073
   20.6000  5.816290E-04  100.537
   20.7000  5.757202E-04  101.026
   20.8000  5.708911E-04  101.507
   20.9000  5.667068E-04  101.953
   21.0000  5.624571E-04  102.361
   21.1000  5.576336E-04  102.757
   21.2000  5.522673E-04  103.177
   21.3000  5.469476E-04  103.649
   21.4000  5.424389E-04  104.166
   21.5000  5.391773E-04  104.695
   21.6000  5.369700E-04  105.194
   21.7000  5.350788E-04  105.639
   21.8000  5.327023E-04  106.046
   21.9000  5.294870E-04  106.458
   22.0000  5.258024E-04  106.917
   22.1000  5.225182E-04  107.443
   22.2000  5.204658E-04  108.009
   22.3000  5.198774E-04  108.565
   22.4000  5.201952E-04  109.064
   22.5000  5.204307E-04  109.498
   22.6000  5.197548E-04  109.901
   22.7000  5.180902E-04  110.332
   22.8000  5.161820E-04  110.836
   22.9000  5.151642E-04  111.414
   23.0000  5.158314E-04  112.019
   23.1000  5.181137E-04  112.584
   23.2000  5.210745E-04  113.068
   23.3000  5.234838E-04  113.479
   23.4000  5.245893E-04  113.876
   23.5000  5.246724E-04  114.330
   23.6000  5.248933E-04  114.878
   23.7000  5.266183E-04  115.502
   23.8000  5.305373E-04  116.129
   23.9000  5.361993E-04  116.685
   24.0000  5.422381E-04  117.137
   24.1000  5.472074E-04  117.517
   24.2000  5.505157E-04  117.905
   24.3000  5.528766E-04  118.380
   24.4000  5.559287E-04  118.966
   24.5000  5.612737E-04  119.621
   24.6000  5.694366E-04  120.252
   24.7000  5.795085E-04  120.779
   24.8000  5.896183E-04  121.183
   24.9000  5.980865E-04  121.522
   25.0000  6.045466E-04  121.893
   25.1000  6.102560E-04  122.378
   25.2000  6.174551E-04  122.989
   25.3000  6.280284E-04  123.657
   25.4000  6.423247E-04  124.271
   25.5000  6.588259E-04  124.749
   25.6000  6.750420E-04  125.088
   25.7000  6.889992E-04  125.369
   25.8000  7.005823E-04  125.707
   25.9000  7.117743E-04  126.185
   26.0000  7.256439E-04  126.798
   26.1000  7.445656E-04  127.456
   26.2000  7.686897E-04  128.029
   26.3000  7.957662E-04  128.435
   26.4000  8.223735E-04  128.686
   26.5000  8.460514E-04  128.886
   26.6000  8.669487E-04  129.162
   26.7000  8.881323E-04  129.600
   26.8000  9.139972E-04  130.182
   26.9000  9.478191E-04  130.795
   27.0000  9.897376E-04  131.295
   27.1000  1.036463E-03  131.598
   27.2000  1.083152E-03  131.728
   27.3000  1.126369E-03  131.803
   27.4000  1.166557E-03  131.966
   27.5000  1.208477E-03  132.305
   27.6000  1.258982E-03  132.796
   27.7000  1.323443E-03  133.309
   27.8000  1.402507E-03  133.684
   27.9000  1.491606E-03  133.827
   28.0000  1.583419E-03  133.766
   28.1000  1.672524E-03  133.629
   28.2000  1.759640E-03  133.575
   28.3000  1.852704E-03  133.700
   28.4000  1.963999E-03  133.979
   28.5000  2.104382E-03  134.270
   28.6000  2.277549E-03  134.392
   28.7000  2.478040E-03  134.234
   28.8000  2.694608E-03  133.811
   28.9000  2.917835E-03  133.253
   29.0000  3.148777E-03  132.729
   29.1000  3.403349E-03  132.347
   29.2000  3.709373E-03  132.089
   29.3000  4.096913E-03  131.801
   29.4000  4.586178E-03  131.269
   29.5000  5.179687E-03  130.336
   29.6000  5.864569E-03  128.978
   29.7000  6.626611E-03  127.294
   29.8000  7.471858E-03  125.436
   29.9000  8.445259E-03  123.506
   30.0000  9.636897E-03  121.469
   30.1000  1.116588E-02  119.123
   30.2000  1.314201E-02  116.153
   30.3000  1.561395E-02  112.254
   30.4000  1.851580E-02  107.243
   30.5000  2.163424E-02  101.099
   30.6000  2.461612E-02  93.9431
   30.7000  2.702780E-02  85.9885
   30.8000  2.845999E-02  77.5044
   30.9000  2.864469E-02  68.7876
   31.0000  2.754087E-02  60.1401
   31.1000  2.534533E-02  51.8601
   31.2000  2.242986E-02  44.2298
   31.3000  1.922855E-02  37.4900
   31.4000  1.613175E-02  31.8207
   31.5000  1.340850E-02  27.2903
   31.6000  1.118385E-02  23.8154
   31.7000  9.454217E-03  21.1522
   31.8000  8.131425E-03  18.9648
   31.9000  7.094370E-03  16.9530
   32.0000  6.232175E-03  14.9635
   32.1000  5.471762E-03  13.0205
   32.2000  4.783445E-03  11.2750
   32.3000  4.169901E-03  9.90304
   32.4000  3.646528E-03  9.00265
   32.5000  3.223308E-03  8.52230
   32.6000  2.894356E-03  8.26250
   32.7000  2.638017E-03  7.96938
   32.8000  2.425149E-03  7.46768
   32.9000  2.230047E-03  6.74186
   33.0000  2.038449E-03  5.93108
   33.1000  1.849718E-03  5.24887
   33.2000  1.672860E-03  4.87768
   33.3000  1.519338E-03  4.87685
   33.4000  1.395843E-03  5.13743
   33.5000  1.300943E-03  5.42762
   33.6000  1.225880E-03  5.51887
   33.7000  1.158883E-03  5.30724
   33.8000  1.090357E-03  4.85906
   33.9000  1.016583E-03  4.36703
   34.0000  9.401953E-04  4.05620
   34.1000  8.677520E-04  4.07803
   34.2000  8.058762E-04  4.43225
   34.3000  7.578434E-04  4.95211
   34.4000  7.221565E-04  5.38720
   34.5000  6.935330E-04  5.53870
   34.6000  6.656087E-04  5.36535
   34.7000  6.338294E-04  4.98866
   34.8000  5.972679E-04  4.62921
   34.9000  5.585313E-04  4.50558
   35.0000  5.221301E-04  4.73430
   35.1000  4.920340E-04  5.26147
   35.2000  4.698283E-04  5.88190
   35.3000  4.540847E-04  6.34139
   35.4000  4.412321E-04  6.47282
   35.5000  4.273379E-04  6.28004
   35.6000  4.098984E-04  5.92005
   35.7000  3.888403E-04  5.62654
   35.8000  3.663051E-04  5.60746
   35.9000  3.454170E-04  5.94971
   36.0000  3.287567E-04  6.56621
   36.1000  3.171520E-04  7.22773
   36.2000  3.094285E-04  7.68234
   36.3000  3.030508E-04  7.78545
   36.4000  2.953732E-04  7.56797
   36.5000  2.848311E-04  7.20538
   36.6000  2.715531E-04  6.93744
   36.7000  2.571683E-04  6.96469
   36.8000  2.439415E-04  7.35968
   36.9000  2.336786E-04  8.01855
   37.0000  2.269339E-04  8.70348
   37.1000  2.228215E-04  9.16179
   37.2000  2.195080E-04  9.25687
   37.3000  2.150784E-04  9.02638
   37.4000  2.083958E-04  8.65219
   37.5000  1.995606E-04  8.37470
   37.6000  1.897603E-04  8.39701
   37.7000  1.806783E-04  8.79324
   37.8000  1.737030E-04  9.46424
   37.9000  1.693196E-04  10.1726
   38.0000  1.669395E-04  10.6608
   38.1000  1.652213E-04  10.7817
   38.2000  1.627080E-04  10.5616
   38.3000  1.584572E-04  10.1730
   38.4000  1.524310E-04  9.85639
   38.5000  1.454537E-04  9.82426
   38.6000  1.387952E-04  10.1720
   38.7000  1.335927E-04  10.8246
   38.8000  1.303593E-04  11.5583
   38.9000  1.287895E-04  12.1078
   39.0000  1.279308E-04  12.2985
   39.1000  1.266361E-04  12.1236
   39.2000  1.240518E-04  11.7319
   39.3000  1.199765E-04  11.3568
   39.4000  1.149106E-04  11.2255
   39.5000  1.097942E-04  11.4698
   39.6000  1.055971E-04  12.0610
   39.7000  1.028838E-04  12.8084
   39.8000  1.016126E-04  13.4432
   39.9000  1.011627E-04  13.7528
   40.0000  1.006407E-04  13.6750
   40.1000  9.925341E-05  13.3135
   40.2000  9.664441E-05  12.8820
   40.3000  9.301581E-05  12.6198
   40.4000  8.901797E-05  12.7032
   40.5000  8.545262E-05  13.1696
   40.6000  8.293545E-05  13.8887
   40.7000  8.164798E-05  14.6094
   40.8000  8.127870E-05  15.0803
   40.9000  8.117859E-05  15.1658
   41.0000  8.063788E-05  14.8987
   41.1000  7.917963E-05  14.4492
   41.2000  7.674540E-05  14.0537
   41.3000  7.369433E-05  13.9287
   41.4000  7.064296E-05  14.1905
   41.5000  6.819754E-05  14.7980
   41.6000  6.671555E-05  15.5567
   41.7000  6.616730E-05  16.1991
   41.8000  6.616634E-05  16.5140
   41.9000  6.614035E-05  16.4344
   42.0000  6.556374E-05  16.0540
   42.1000  6.416729E-05  15.5752
   42.2000  6.203132E-05  15.2342
   42.3000  5.953919E-05  15.2195
   42.4000  5.721128E-05  15.5984
   42.5000  5.549435E-05  16.2786
   42.6000  5.459489E-05  17.0337
   42.7000  5.439717E-05  17.6030
   42.8000  5.453356E-05  17.8095
   42.9000  5.452794E-05  17.6307
   43.0000  5.399161E-05  17.1899
   43.1000  5.276186E-05  16.7013
   43.2000  5.096056E-05  16.3940
   43.3000  4.893514E-05  16.4358
   43.4000  4.710906E-05  16.8675
   43.5000  4.582706E-05  17.5744
   43.6000  4.521936E-05  18.3214
   43.7000  4.516739E-05  18.8552
   43.8000  4.535175E-05  19.0168
   43.9000  4.538628E-05  18.7990
   44.0000  4.496180E-05  18.3324
   44.1000  4.395963E-05  17.8292
   44.2000  4.248651E-05  17.5131
   44.3000  4.082634E-05  17.5470
   44.4000  3.932841E-05  17.9695
   44.5000  3.827616E-05  18.6704
   44.6000  3.778291E-05  19.4211
   44.7000  3.776044E-05  19.9713
   44.8000  3.795691E-05  20.1576
   44.9000  3.805553E-05  19.9605
   45.0000  3.779096E-05  19.4977
   45.1000  3.704593E-05  18.9706
   45.2000  3.588305E-05  18.5996
   45.3000  3.451719E-05  18.5564
   45.4000  3.323429E-05  18.9036
   45.5000  3.228332E-05  19.5602
   45.6000  3.179046E-05  20.3206
   45.7000  3.172126E-05  20.9355
   45.8000  3.189434E-05  21.2176
   45.9000  3.205683E-05  21.1104
   46.0000  3.197028E-05  20.6956
   46.1000  3.149515E-05  20.1511
   46.2000  3.063702E-05  19.6923
   46.3000  2.953711E-05  19.5084
   46.4000  2.841612E-05  19.7033
   46.5000  2.749958E-05  20.2519
   46.6000  2.693866E-05  20.9958
   46.7000  2.675833E-05  21.6974
   46.8000  2.685715E-05  22.1386
   46.9000  2.704690E-05  22.2033
   47.0000  2.711650E-05  21.9110
   47.1000  2.690649E-05  21.3958
   47.2000  2.635882E-05  20.8544
   47.3000  2.553369E-05  20.4901
   47.4000  2.458273E-05  20.4548
   47.5000  2.369648E-05  20.7985
   47.6000  2.304118E-05  21.4419
   47.7000  2.270142E-05  22.1925
   47.8000  2.265884E-05  22.8172
   47.9000  2.280031E-05  23.1323
   48.0000  2.295951E-05  23.0698
   48.1000  2.297187E-05  22.6872
   48.2000  2.272859E-05  22.1365
   48.3000  2.220853E-05  21.6134
   48.4000  2.148153E-05  21.3049
   48.5000  2.068365E-05  21.3387
   48.6000  1.996885E-05  21.7383
   48.7000  1.946244E-05  22.4049
   48.8000  1.922092E-05  23.1423
   48.9000  1.921629E-05  23.7284
   49.0000  1.935035E-05  23.9990
   49.1000  1.948623E-05  23.9017
   49.2000  1.949312E-05  23.5001
   49.3000  1.928592E-05  22.9425
   49.4000  1.885048E-05  22.4156
   49.5000  1.824380E-05  22.0973
   49.6000  1.757485E-05  22.1091
   49.7000  1.696951E-05  22.4781
   49.8000  1.652918E-05  23.1171
   49.9000  1.630502E-05  23.8445
   50.0000  1.628206E-05  24.4485
   50.1000  1.638648E-05  24.7629
   50.2000  1.651079E-05  24.7213
   50.3000  1.654692E-05  24.3669
   50.4000  1.641749E-05  23.8269
   50.5000  1.609818E-05  23.2740
   50.6000  1.562194E-05  22.8814
   50.7000  1.506707E-05  22.7824
   50.8000  1.453287E-05  23.0310
   50.9000  1.411016E-05  23.5789
   51.0000  1.385533E-05  24.2808
   51.1000  1.377456E-05  24.9401
   51.2000  1.382621E-05  25.3755
   51.3000  1.393282E-05  25.4830
   51.4000  1.400569E-05  25.2590
   51.5000  1.396938E-05  24.7921
   51.6000  1.378318E-05  24.2264
   51.7000  1.345039E-05  23.7291
   51.8000  1.301515E-05  23.4491
   51.9000  1.254994E-05  23.4816
   52.0000  1.213259E-05  23.8400
   52.1000  1.182605E-05  24.4419
   52.2000  1.166046E-05  25.1292
   52.3000  1.162846E-05  25.7162
   52.4000  1.168662E-05  26.0523
   52.5000  1.176997E-05  26.0669
   52.6000  1.181045E-05  25.7800
   52.7000  1.175406E-05  25.2872
   52.8000  1.157540E-05  24.7301
   52.9000  1.128369E-05  24.2607
   53.0000  1.091731E-05  24.0110
   53.1000  1.053298E-05  24.0617
   53.2000  1.019121E-05  24.4165
   53.3000  9.938328E-06  24.9963
   53.4000  9.797875E-06  25.6532
   53.5000  9.762655E-06  26.2189
   53.6000  9.800310E-06  26.5541
   53.7000  9.862125E-06  26.5891
   53.8000  9.894615E-06  26.3368
   53.9000  9.855866E-06  25.8767
   54.0000  9.723030E-06  25.3334
   54.1000  9.498413E-06  24.8455
   54.2000  9.207593E-06  24.5382
   54.3000  8.891343E-06  24.4969
   54.4000  8.595660E-06  24.7449
   54.5000  8.359731E-06  25.2319
   54.6000  8.206720E-06  25.8426
   54.7000  8.139670E-06  26.4264
   54.8000  8.140953E-06  26.8435
   54.9000  8.177627E-06  27.0033
   55.0000  8.211018E-06  26.8834
   55.1000  8.204120E-06  26.5295
   55.2000  8.132765E-06  26.0342
   55.3000  7.988410E-06  25.5170
   55.4000  7.780309E-06  25.0992
   55.5000  7.533091E-06  24.8794
   55.6000  7.278099E-06  24.9167
   55.7000  7.048967E-06  25.2093
   55.8000  6.870668E-06  25.6959
   55.9000  6.756624E-06  26.2643
   56.0000  6.704960E-06  26.7827
   56.1000  6.700830E-06  27.1338
   56.2000  6.719543E-06  27.2472
   56.3000  6.732691E-06  27.1112
   56.4000  6.715425E-06  26.7673
   56.5000  6.650485E-06  26.2982
   56.6000  6.532403E-06  25.8066
   56.7000  6.367390E-06  25.3973
   56.8000  6.172148E-06  25.1564
   56.9000  5.968514E-06  25.1386
   57.0000  5.779706E-06  25.3504
   57.1000  5.624355E-06  25.7490
   57.2000  5.513870E-06  26.2464
   57.3000  5.449408E-06  26.7336
   57.4000  5.423152E-06  27.1055
   57.5000  5.419912E-06  27.2879
   57.6000  5.420988E-06  27.2512
   57.7000  5.408233E-06  27.0117
   57.8000  5.367164E-06  26.6247
   57.9000  5.290551E-06  26.1676
   58.0000  5.178399E-06  25.7282
   58.1000  5.037738E-06  25.3890
   58.2000  4.881269E-06  25.2123
   58.3000  4.724066E-06  25.2301
   58.4000  4.580547E-06  25.4370
   58.5000  4.461716E-06  25.7894
   58.6000  4.373342E-06  26.2135
   58.7000  4.315629E-06  26.6205
   58.8000  4.282862E-06  26.9290
   58.9000  4.265358E-06  27.0807
   59.0000  4.251470E-06  27.0510
   59.1000  4.230049E-06  26.8488
   59.2000  4.191702E-06  26.5148
   59.3000  4.131324E-06  26.1062
   59.4000  4.047924E-06  25.6908
   59.5000  3.944837E-06  25.3343
   59.6000  3.828772E-06  25.0899
   59.7000  3.708284E-06  24.9930
   59.8000  3.591956E-06  25.0536
   59.9000  3.487578E-06  25.2534
   60.0000  3.400226E-06  25.5500
   60.1000  3.331993E-06  25.8840
   60.2000  3.281942E-06  26.1899
   60.3000  3.246234E-06  26.4108
   60.4000  3.219405E-06  26.5054
   60.5000  3.194555E-06  26.4589
   60.6000  3.166004E-06  26.2738
   60.7000  3.128458E-06  25.9771
   60.8000  3.078638E-06  25.6088
   60.9000  3.015857E-06  25.2137
   61.0000  2.940731E-06  24.8419
   61.1000  2.856311E-06  24.5358
   61.2000  2.766783E-06  24.3275
   61.3000  2.676560E-06  24.2372
   61.4000  2.590096E-06  24.2681
   61.5000  2.511191E-06  24.4050
   61.6000  2.442203E-06  24.6185
   61.7000  2.384546E-06  24.8662
   61.8000  2.337587E-06  25.1037
   61.9000  2.299994E-06  25.2844
   62.0000  2.269238E-06  25.3717
   62.1000  2.241857E-06  25.3436
   62.2000  2.214531E-06  25.1908
   62.3000  2.184115E-06  24.9188
   62.4000  2.147983E-06  24.5473
   62.5000  2.104284E-06  24.1067
   62.6000  2.052289E-06  23.6339
   62.7000  1.992362E-06  23.1705
   62.8000  1.925749E-06  22.7573
   62.9000  1.854936E-06  22.4286
   63.0000  1.782396E-06  22.2171
   63.1000  1.711210E-06  22.1388
   63.2000  1.644411E-06  22.1937
   63.3000  1.584245E-06  22.3681
   63.4000  1.532501E-06  22.6257
   63.5000  1.489997E-06  22.9170
   63.6000  1.456526E-06  23.1814
   63.7000  1.430850E-06  23.3588
   63.8000  1.410701E-06  23.3992
   63.9000  1.393455E-06  23.2641
   64.0000  1.376012E-06  22.9384
   64.1000  1.355448E-06  22.4258
   64.2000  1.329217E-06  21.7518
   64.3000  1.295368E-06  20.9618
   64.4000  1.253227E-06  20.1072
   64.5000  1.203051E-06  19.2533
   64.6000  1.146091E-06  18.4693
   64.7000  1.084534E-06  17.8216
   64.8000  1.021279E-06  17.3685
   64.9000  9.593459E-07  17.1557
   65.0000  9.019386E-07  17.1982
   65.1000  8.515320E-07  17.4795
   65.2000  8.098962E-07  17.9463
   65.3000  7.779992E-07  18.5017
   65.4000  7.556139E-07  19.0273
   65.5000  7.414025E-07  19.4002
   65.6000  7.333005E-07  19.5092
   65.7000  7.286666E-07  19.2752
   65.8000  7.244026E-07  18.6658
   65.9000  7.175338E-07  17.6851
   66.0000  7.056154E-07  16.3687
   66.1000  6.868369E-07  14.7800
   66.2000  6.601317E-07  13.0013
   66.3000  6.256328E-07  11.1277
   66.4000  5.842329E-07  9.26572
   66.5000  5.376813E-07  7.52642
   66.6000  4.883727E-07  6.02681
   66.7000  4.388899E-07  4.88110
   66.8000  3.918577E-07  4.19504
   66.9000  3.496802E-07  4.03515
   67.0000  3.141205E-07  4.41348
   67.1000  2.864561E-07  5.24527
   67.2000  2.669495E-07  6.35102
   67.3000  2.552546E-07  7.45632
   67.4000  2.504395E-07  8.25017
   67.5000  2.508078E-07  8.47542
   67.6000  2.545359E-07  7.95055
   67.7000  2.595379E-07  6.60417
   67.8000  2.640441E-07  4.44025
   67.9000  2.662837E-07  1.52554
   68.0000  2.651620E-07 -2.05930
   68.1000  2.598644E-07 -6.20929
   68.2000  2.501560E-07 -10.8283
   68.3000  2.362310E-07 -15.8143
   68.4000  2.187732E-07 -21.0748
   68.5000  1.985943E-07 -26.5044
   68.6000  1.767183E-07 -31.9936
   68.7000  1.542856E-07 -37.4087
   68.8000  1.323535E-07 -42.5924
   68.9000  1.117659E-07 -47.3541
   69.0000  9.333866E-08 -51.4516
   69.1000  7.766560E-08 -54.6140
   69.2000  6.518999E-08 -56.5593
   69.3000  5.624380E-08 -57.1116
   69.4000  5.107665E-08 -56.3495
   69.5000  4.993981E-08 -54.7526
   69.6000  5.297913E-08 -53.1547
   69.7000  6.047387E-08 -52.3466
   69.8000  7.251673E-08 -52.8181
   69.9000  8.922715E-08 -54.6369
   70.0000  1.105981E-07 -57.6320
   70.1000  1.364205E-07 -61.5334
   70.2000  1.662459E-07 -66.0901
   70.3000  1.993739E-07 -71.0807
   70.4000  2.348041E-07 -76.3292
   70.5000  2.712302E-07 -81.7021
   70.6000  3.071870E-07 -87.0793
   70.7000  3.410020E-07 -92.3842
   70.8000  3.710457E-07 -97.5217
   70.9000  3.957801E-07 -102.431
   71.0000  4.139794E-07 -107.027
   71.1000  4.248246E-07 -111.242
   71.2000  4.281215E-07 -114.984
   71.3000  4.242307E-07 -118.165
   71.4000  4.143891E-07 -120.669
   71.5000  4.004479E-07 -122.400
   71.6000  3.849163E-07 -123.239
   71.7000  3.708727E-07 -123.125
   71.8000  3.617148E-07 -122.049
   71.9000  3.609780E-07 -120.136
   72.0000  3.720330E-07 -117.652
   72.1000  3.979613E-07 -114.968
   72.2000  4.410909E-07 -112.491
   72.3000  5.029210E-07 -110.548
   72.4000  5.839935E-07 -109.323
   72.5000  6.835821E-07 -108.867
   72.6000  7.998844E-07 -109.129
   72.7000  9.299689E-07 -110.015
   72.8000  1.069774E-06 -111.407
   72.9000  1.214671E-06 -113.197
   73.0000  1.359404E-06 -115.277
   73.1000  1.498448E-06 -117.551
   73.2000  1.626692E-06 -119.936
   73.3000  1.739179E-06 -122.360
   73.4000  1.832035E-06 -124.754
   73.5000  1.902520E-06 -127.052
   73.6000  1.949085E-06 -129.189
   73.7000  1.972022E-06 -131.106
   73.8000  1.972855E-06 -132.745
   73.9000  1.955035E-06 -134.041
   74.0000  1.923322E-06 -134.941
   74.1000  1.883552E-06 -135.390
   74.2000  1.842729E-06 -135.361
   74.3000  1.808480E-06 -134.835
   74.4000  1.788461E-06 -133.840
   74.5000  1.790289E-06 -132.438
   74.6000  1.820794E-06 -130.745
   74.7000  1.885956E-06 -128.908
   74.8000  1.990233E-06 -127.084
   74.9000  2.136503E-06 -125.428
   75.0000  2.325800E-06 -124.067
   75.1000  2.557472E-06 -123.078
   75.2000  2.828427E-06 -122.496
   75.3000  3.133933E-06 -122.320
   75.4000  3.467889E-06 -122.522
   75.5000  3.822224E-06 -123.063
   75.6000  4.188350E-06 -123.891
   75.7000  4.556516E-06 -124.954
   75.8000  4.917352E-06 -126.201
   75.9000  5.260839E-06 -127.584
   76.0000  5.578569E-06 -129.058
   76.1000  5.862549E-06 -130.580
   76.2000  6.106485E-06 -132.109
   76.3000  6.305862E-06 -133.608
   76.4000  6.457884E-06 -135.042
   76.5000  6.562348E-06 -136.377
   76.6000  6.620662E-06 -137.578
   76.7000  6.636853E-06 -138.616
   76.8000  6.616945E-06 -139.462
   76.9000  6.568579E-06 -140.086
   77.0000  6.501135E-06 -140.470
   77.1000  6.425189E-06 -140.596
   77.2000  6.352033E-06 -140.452
   77.3000  6.293645E-06 -140.043
   77.4000  6.261889E-06 -139.381
   77.5000  6.268257E-06 -138.498
   77.6000  6.323305E-06 -137.432
   77.7000  6.436501E-06 -136.241
   77.8000  6.615596E-06 -134.988
   77.9000  6.866705E-06 -133.738
   78.0000  7.194193E-06 -132.557
   78.1000  7.599761E-06 -131.500
   78.2000  8.083072E-06 -130.608
   78.3000  8.641831E-06 -129.912
   78.4000  9.271404E-06 -129.429
   78.5000  9.965142E-06 -129.160
   78.6000  1.071459E-05 -129.102
   78.7000  1.151008E-05 -129.241
   78.8000  1.234030E-05 -129.562
   78.9000  1.319364E-05 -130.043
   79.0000  1.405706E-05 -130.662
   79.1000  1.491819E-05 -131.398
   79.2000  1.576416E-05 -132.230
   79.3000  1.658353E-05 -133.138
   79.4000  1.736485E-05 -134.102
   79.5000  1.809769E-05 -135.104
   79.6000  1.877367E-05 -136.125
   79.7000  1.938555E-05 -137.149
   79.8000  1.992823E-05 -138.161
   79.9000  2.039782E-05 -139.149
   80.0000  2.079328E-05 -140.095
   80.1000  2.111518E-05 -140.989
   80.2000  2.136519E-05 -141.820
   80.3000  2.154812E-05 -142.575
   80.4000  2.166910E-05 -143.243
   80.5000  2.173656E-05 -143.819
   80.6000  2.175898E-05 -144.292
   80.7000  2.174633E-05 -144.656
   80.8000  2.170963E-05 -144.905
   80.9000  2.166070E-05 -145.038
   81.0000  2.161151E-05 -145.052
   81.1000  2.157524E-05 -144.951
   81.2000  2.156346E-05 -144.736
   81.3000  2.158831E-05 -144.413
   81.4000  2.166175E-05 -143.991
   81.5000  2.179433E-05 -143.482
   81.6000  2.199675E-05 -142.900
   81.7000  2.227819E-05 -142.260
   81.8000  2.264592E-05 -141.580
   81.9000  2.310706E-05 -140.875
   82.0000  2.366730E-05 -140.168
   82.1000  2.433029E-05 -139.469
   82.2000  2.509903E-05 -138.799
   82.3000  2.597471E-05 -138.169
   82.4000  2.695778E-05 -137.593
   82.5000  2.804626E-05 -137.079
   82.6000  2.923806E-05 -136.635
   82.7000  3.052938E-05 -136.263
   82.8000  3.191544E-05 -135.967
   82.9000  3.339115E-05 -135.750
   83.0000  3.494857E-05 -135.607
   83.1000  3.658118E-05 -135.540
   83.2000  3.828080E-05 -135.543
   83.3000  4.004056E-05 -135.613
   83.4000  4.185008E-05 -135.745
   83.5000  4.370260E-05 -135.935
   83.6000  4.558691E-05 -136.178
   83.7000  4.749484E-05 -136.468
   83.8000  4.941761E-05 -136.799
   83.9000  5.134828E-05 -137.168
   84.0000  5.327507E-05 -137.570
   84.1000  5.519367E-05 -137.999
   84.2000  5.709546E-05 -138.452
   84.3000  5.897142E-05 -138.925
   84.4000  6.081702E-05 -139.411
   84.5000  6.262768E-05 -139.911
   84.6000  6.439671E-05 -140.420
   84.7000  6.611756E-05 -140.933
   84.8000  6.778906E-05 -141.450
   84.9000  6.940607E-05 -141.968
   85.0000  7.096733E-05 -142.482
   85.1000  7.246999E-05 -142.994
   85.2000  7.391117E-05 -143.498
   85.3000  7.529122E-05 -143.994
   85.4000  7.660946E-05 -144.482
   85.5000  7.786441E-05 -144.958
   85.6000  7.905896E-05 -145.423
   85.7000  8.019099E-05 -145.874
   85.8000  8.126294E-05 -146.312
   85.9000  8.227595E-05 -146.736
   86.0000  8.323158E-05 -147.144
   86.1000  8.413225E-05 -147.536
   86.2000  8.497808E-05 -147.914
   86.3000  8.577389E-05 -148.275
   86.4000  8.652033E-05 -148.619
   86.5000  8.721930E-05 -148.947
   86.6000  8.787411E-05 -149.258
   86.7000  8.848809E-05 -149.555
   86.8000  8.906195E-05 -149.833
   86.9000  8.960030E-05 -150.098
   87.0000  9.010275E-05 -150.345
   87.1000  9.057180E-05 -150.578
   87.2000  9.101172E-05 -150.797
   87.3000  9.142327E-05 -151.000
   87.4000  9.180856E-05 -151.191
   87.5000  9.216943E-05 -151.368
   87.6000  9.250621E-05 -151.531
   87.7000  9.282325E-05 -151.684
   87.8000  9.312003E-05 -151.824
   87.9000  9.339726E-05 -151.953
   88.0000  9.365796E-05 -152.072
   88.1000  9.390090E-05 -152.180
   88.2000  9.412938E-05 -152.279
   88.3000  9.434301E-05 -152.370
   88.4000  9.454374E-05 -152.453
   88.5000  9.472864E-05 -152.527
   88.6000  9.490072E-05 -152.594
   88.7000  9.506143E-05 -152.654
   88.8000  9.520861E-05 -152.708
   88.9000  9.534413E-05 -152.756
   89.0000  9.546785E-05 -152.799
   89.1000  9.557899E-05 -152.836
   89.2000  9.567784E-05 -152.868
   89.3000  9.576666E-05 -152.897
   89.4000  9.584263E-05 -152.920
   89.5000  9.590772E-05 -152.940
   89.6000  9.596028E-05 -152.955
   89.7000  9.599971E-05 -152.967
   89.8000  9.603049E-05 -152.976
   89.9000  9.604878E-05 -152.981
   90.0000  9.605448E-05 -152.983