Ni Rho=8.902, Sig=0.nm, P=1., E=350.eV
 Angle (deg), Reflectivity
   0.000000  1.00000
   9.000000E-02  0.992429
   0.180000  0.984912
   0.270000  0.977447
   0.360000  0.970030
   0.450000  0.962660
   0.540000  0.955333
   0.630000  0.948045
   0.720000  0.940796
   0.810000  0.933582
   0.900000  0.926400
   0.990000  0.919248
   1.08000  0.912123
   1.17000  0.905023
   1.26000  0.897945
   1.35000  0.890887
   1.44000  0.883847
   1.53000  0.876822
   1.62000  0.869810
   1.71000  0.862808
   1.80000  0.855814
   1.89000  0.848825
   1.98000  0.841840
   2.07000  0.834855
   2.16000  0.827868
   2.25000  0.820878
   2.34000  0.813881
   2.43000  0.806875
   2.52000  0.799857
   2.61000  0.792826
   2.70000  0.785778
   2.79000  0.778711
   2.88000  0.771621
   2.97000  0.764508
   3.06000  0.757367
   3.15000  0.750196
   3.24000  0.742992
   3.33000  0.735753
   3.42000  0.728474
   3.51000  0.721154
   3.60000  0.713788
   3.69000  0.706374
   3.78000  0.698907
   3.87000  0.691386
   3.96000  0.683806
   4.05000  0.676163
   4.14000  0.668453
   4.23000  0.660673
   4.32000  0.652819
   4.41000  0.644885
   4.50000  0.636869
   4.59000  0.628764
   4.68000  0.620566
   4.77000  0.612271
   4.86000  0.603873
   4.95000  0.595368
   5.04000  0.586748
   5.13000  0.578009
   5.22000  0.569144
   5.31000  0.560148
   5.40000  0.551015
   5.49000  0.541737
   5.58000  0.532309
   5.67000  0.522723
   5.76000  0.512974
   5.85000  0.503053
   5.94000  0.492954
   6.03000  0.482671
   6.12000  0.472198
   6.21000  0.461528
   6.30000  0.450655
   6.39000  0.439576
   6.48000  0.428287
   6.57000  0.416786
   6.66000  0.405073
   6.75000  0.393148
   6.84000  0.381019
   6.93000  0.368691
   7.02000  0.356179
   7.11000  0.343497
   7.20000  0.330670
   7.29000  0.317724
   7.38000  0.304694
   7.47000  0.291622
   7.56000  0.278553
   7.65000  0.265543
   7.74000  0.252648
   7.83000  0.239929
   7.92000  0.227448
   8.01000  0.215266
   8.10000  0.203440
   8.19000  0.192019
   8.28000  0.181048
   8.37000  0.170560
   8.46000  0.160578
   8.55000  0.151118
   8.64000  0.142184
   8.73000  0.133773
   8.82000  0.125874
   8.91000  0.118474
   9.00000  0.111552
   9.09000  0.105085
   9.18000  9.904896E-02
   9.27000  9.341915E-02
   9.36000  8.816978E-02
   9.45000  8.327571E-02
   9.54000  7.871249E-02
   9.63000  7.445677E-02
   9.72000  7.048628E-02
   9.81000  6.678010E-02
   9.90000  6.331871E-02
   9.99000  6.008380E-02
   10.0800  5.705843E-02
   10.1700  5.422704E-02
   10.2600  5.157502E-02
   10.3500  4.908907E-02
   10.4400  4.675693E-02
   10.5300  4.456735E-02
   10.6200  4.250989E-02
   10.7100  4.057498E-02
   10.8000  3.875388E-02
   10.8900  3.703853E-02
   10.9800  3.542141E-02
   11.0700  3.389583E-02
   11.1600  3.245544E-02
   11.2500  3.109444E-02
   11.3400  2.980749E-02
   11.4300  2.858971E-02
   11.5200  2.743651E-02
   11.6100  2.634375E-02
   11.7000  2.530749E-02
   11.7900  2.432420E-02
   11.8800  2.339055E-02
   11.9700  2.250346E-02
   12.0600  2.166007E-02
   12.1500  2.085775E-02
   12.2400  2.009401E-02
   12.3300  1.936662E-02
   12.4200  1.867342E-02
   12.5100  1.801244E-02
   12.6000  1.738185E-02
   12.6900  1.677990E-02
   12.7800  1.620502E-02
   12.8700  1.565569E-02
   12.9600  1.513054E-02
   13.0500  1.462824E-02
   13.1400  1.414757E-02
   13.2300  1.368738E-02
   13.3200  1.324661E-02
   13.4100  1.282424E-02
   13.5000  1.241932E-02
   13.5900  1.203099E-02
   13.6800  1.165838E-02
   13.7700  1.130073E-02
   13.8600  1.095728E-02
   13.9500  1.062736E-02
   14.0400  1.031031E-02
   14.1300  1.000550E-02
   14.2200  9.712356E-03
   14.3100  9.430334E-03
   14.4000  9.158908E-03
   14.4900  8.897591E-03
   14.5800  8.645928E-03
   14.6700  8.403468E-03
   14.7600  8.169798E-03
   14.8500  7.944542E-03
   14.9400  7.727317E-03
   15.0300  7.517776E-03
   15.1200  7.315570E-03
   15.2100  7.120405E-03
   15.3000  6.931973E-03
   15.3900  6.749980E-03
   15.4800  6.574166E-03
   15.5700  6.404273E-03
   15.6600  6.240044E-03
   15.7500  6.081272E-03
   15.8400  5.927710E-03
   15.9300  5.779167E-03
   16.0200  5.635423E-03
   16.1100  5.496301E-03
   16.2000  5.361621E-03
   16.2900  5.231198E-03
   16.3800  5.104877E-03
   16.4700  4.982498E-03
   16.5600  4.863902E-03
   16.6500  4.748963E-03
   16.7400  4.637525E-03
   16.8300  4.529469E-03
   16.9200  4.424663E-03
   17.0100  4.322990E-03
   17.1000  4.224330E-03
   17.1900  4.128580E-03
   17.2800  4.035638E-03
   17.3700  3.945394E-03
   17.4600  3.857759E-03
   17.5500  3.772638E-03
   17.6400  3.689942E-03
   17.7300  3.609588E-03
   17.8200  3.531495E-03
   17.9100  3.455588E-03
   18.0000  3.381780E-03
   18.0900  3.310019E-03
   18.1800  3.240220E-03
   18.2700  3.172328E-03
   18.3600  3.106264E-03
   18.4500  3.041990E-03
   18.5400  2.979424E-03
   18.6300  2.918523E-03
   18.7200  2.859236E-03
   18.8100  2.801503E-03
   18.9000  2.745283E-03
   18.9900  2.690515E-03
   19.0800  2.637160E-03
   19.1700  2.585176E-03
   19.2600  2.534516E-03
   19.3500  2.485138E-03
   19.4400  2.437006E-03
   19.5300  2.390080E-03
   19.6200  2.344326E-03
   19.7100  2.299701E-03
   19.8000  2.256177E-03
   19.8900  2.213719E-03
   19.9800  2.172291E-03
   20.0700  2.131873E-03
   20.1600  2.092425E-03
   20.2500  2.053923E-03
   20.3400  2.016340E-03
   20.4300  1.979647E-03
   20.5200  1.943817E-03
   20.6100  1.908829E-03
   20.7000  1.874658E-03
   20.7900  1.841279E-03
   20.8800  1.808667E-03
   20.9700  1.776807E-03
   21.0600  1.745674E-03
   21.1500  1.715248E-03
   21.2400  1.685512E-03
   21.3300  1.656442E-03
   21.4200  1.628024E-03
   21.5100  1.600239E-03
   21.6000  1.573068E-03
   21.6900  1.546497E-03
   21.7800  1.520508E-03
   21.8700  1.495085E-03
   21.9600  1.470217E-03
   22.0500  1.445886E-03
   22.1400  1.422076E-03
   22.2300  1.398776E-03
   22.3200  1.375973E-03
   22.4100  1.353652E-03
   22.5000  1.331803E-03
   22.5900  1.310414E-03
   22.6800  1.289469E-03
   22.7700  1.268961E-03
   22.8600  1.248877E-03
   22.9500  1.229206E-03
   23.0400  1.209941E-03
   23.1300  1.191068E-03
   23.2200  1.172577E-03
   23.3100  1.154459E-03
   23.4000  1.136711E-03
   23.4900  1.119316E-03
   23.5800  1.102265E-03
   23.6700  1.085558E-03
   23.7600  1.069180E-03
   23.8500  1.053123E-03
   23.9400  1.037380E-03
   24.0300  1.021947E-03
   24.1200  1.006811E-03
   24.2100  9.919693E-04
   24.3000  9.774113E-04
   24.3900  9.631335E-04
   24.4800  9.491298E-04
   24.5700  9.353902E-04
   24.6600  9.219111E-04
   24.7500  9.086873E-04
   24.8400  8.957111E-04
   24.9300  8.829776E-04
   25.0200  8.704817E-04
   25.1100  8.582143E-04
   25.2000  8.461773E-04
   25.2900  8.343594E-04
   25.3800  8.227582E-04
   25.4700  8.113678E-04
   25.5600  8.001851E-04
   25.6500  7.892033E-04
   25.7400  7.784216E-04
   25.8300  7.678320E-04
   25.9200  7.574308E-04
   26.0100  7.472145E-04
   26.1000  7.371795E-04
   26.1900  7.273222E-04
   26.2800  7.176388E-04
   26.3700  7.081244E-04
   26.4600  6.987742E-04
   26.5500  6.895884E-04
   26.6400  6.805603E-04
   26.7300  6.716904E-04
   26.8200  6.629688E-04
   26.9100  6.543978E-04
   27.0000  6.459746E-04
   27.0900  6.376933E-04
   27.1800  6.295510E-04
   27.2700  6.215466E-04
   27.3600  6.136778E-04
   27.4500  6.059388E-04
   27.5400  5.983291E-04
   27.6300  5.908459E-04
   27.7200  5.834871E-04
   27.8100  5.762488E-04
   27.9000  5.691287E-04
   27.9900  5.621236E-04
   28.0800  5.552342E-04
   28.1700  5.484583E-04
   28.2600  5.417896E-04
   28.3500  5.352289E-04
   28.4400  5.287731E-04
   28.5300  5.224217E-04
   28.6200  5.161701E-04
   28.7100  5.100192E-04
   28.8000  5.039645E-04
   28.8900  4.980056E-04
   28.9800  4.921398E-04
   29.0700  4.863667E-04
   29.1600  4.806819E-04
   29.2500  4.750880E-04
   29.3400  4.695794E-04
   29.4300  4.641548E-04
   29.5200  4.588151E-04
   29.6100  4.535565E-04
   29.7000  4.483789E-04
   29.7900  4.432796E-04
   29.8800  4.382573E-04
   29.9700  4.333109E-04
   30.0600  4.284389E-04
   30.1500  4.236413E-04
   30.2400  4.189158E-04
   30.3300  4.142587E-04
   30.4200  4.096715E-04
   30.5100  4.051527E-04
   30.6000  4.007004E-04
   30.6900  3.963130E-04
   30.7800  3.919910E-04
   30.8700  3.877322E-04
   30.9600  3.835342E-04
   31.0500  3.793975E-04
   31.1400  3.753210E-04
   31.2300  3.713023E-04
   31.3200  3.673420E-04
   31.4100  3.634402E-04
   31.5000  3.595915E-04
   31.5900  3.557993E-04
   31.6800  3.520609E-04
   31.7700  3.483733E-04
   31.8600  3.447396E-04
   31.9500  3.411571E-04
   32.0400  3.376249E-04
   32.1300  3.341403E-04
   32.2200  3.307046E-04
   32.3100  3.273189E-04
   32.4000  3.239767E-04
   32.4900  3.206831E-04
   32.5800  3.174335E-04
   32.6700  3.142272E-04
   32.7600  3.110674E-04
   32.8500  3.079496E-04
   32.9400  3.048752E-04
   33.0300  3.018396E-04
   33.1200  2.988477E-04
   33.2100  2.958936E-04
   33.3000  2.929803E-04
   33.3900  2.901072E-04
   33.4800  2.872702E-04
   33.5700  2.844739E-04
   33.6600  2.817108E-04
   33.7500  2.789857E-04
   33.8400  2.762979E-04
   33.9300  2.736434E-04
   34.0200  2.710253E-04
   34.1100  2.684396E-04
   34.2000  2.658893E-04
   34.2900  2.633720E-04
   34.3800  2.608858E-04
   34.4700  2.584317E-04
   34.5600  2.560111E-04
   34.6500  2.536202E-04
   34.7400  2.512601E-04
   34.8300  2.489304E-04
   34.9200  2.466291E-04
   35.0100  2.443574E-04
   35.1000  2.421150E-04
   35.1900  2.399012E-04
   35.2800  2.377144E-04
   35.3700  2.355540E-04
   35.4600  2.334227E-04
   35.5500  2.313155E-04
   35.6400  2.292369E-04
   35.7300  2.271833E-04
   35.8200  2.251557E-04
   35.9100  2.231510E-04
   36.0000  2.211733E-04
   36.0900  2.192177E-04
   36.1800  2.172870E-04
   36.2700  2.153793E-04
   36.3600  2.134957E-04
   36.4500  2.116345E-04
   36.5400  2.097954E-04
   36.6300  2.079782E-04
   36.7200  2.061839E-04
   36.8100  2.044107E-04
   36.9000  2.026586E-04
   36.9900  2.009271E-04
   37.0800  1.992161E-04
   37.1700  1.975251E-04
   37.2600  1.958554E-04
   37.3500  1.942040E-04
   37.4400  1.925733E-04
   37.5300  1.909590E-04
   37.6200  1.893662E-04
   37.7100  1.877921E-04
   37.8000  1.862351E-04
   37.8900  1.846962E-04
   37.9800  1.831752E-04
   38.0700  1.816719E-04
   38.1600  1.801861E-04
   38.2500  1.787163E-04
   38.3400  1.772648E-04
   38.4300  1.758289E-04
   38.5200  1.744108E-04
   38.6100  1.730067E-04
   38.7000  1.716200E-04
   38.7900  1.702481E-04
   38.8800  1.688921E-04
   38.9700  1.675505E-04
   39.0600  1.662254E-04
   39.1500  1.649133E-04
   39.2400  1.636174E-04
   39.3300  1.623352E-04
   39.4200  1.610677E-04
   39.5100  1.598136E-04
   39.6000  1.585738E-04
   39.6900  1.573472E-04
   39.7800  1.561345E-04
   39.8700  1.549345E-04
   39.9600  1.537482E-04
   40.0500  1.525743E-04
   40.1400  1.514138E-04
   40.2300  1.502665E-04
   40.3200  1.491301E-04
   40.4100  1.480066E-04
   40.5000  1.468948E-04
   40.5900  1.457956E-04
   40.6800  1.447078E-04
   40.7700  1.436313E-04
   40.8600  1.425669E-04
   40.9500  1.415135E-04
   41.0400  1.404711E-04
   41.1300  1.394404E-04
   41.2200  1.384193E-04
   41.3100  1.374097E-04
   41.4000  1.364105E-04
   41.4900  1.354225E-04
   41.5800  1.344437E-04
   41.6700  1.334769E-04
   41.7600  1.325190E-04
   41.8500  1.315709E-04
   41.9400  1.306324E-04
   42.0300  1.297036E-04
   42.1200  1.287851E-04
   42.2100  1.278760E-04
   42.3000  1.269752E-04
   42.3900  1.260845E-04
   42.4800  1.252028E-04
   42.5700  1.243300E-04
   42.6600  1.234662E-04
   42.7500  1.226100E-04
   42.8400  1.217644E-04
   42.9300  1.209265E-04
   43.0200  1.200960E-04
   43.1100  1.192757E-04
   43.2000  1.184619E-04
   43.2900  1.176571E-04
   43.3800  1.168605E-04
   43.4700  1.160709E-04
   43.5600  1.152902E-04
   43.6500  1.145173E-04
   43.7400  1.137512E-04
   43.8300  1.129928E-04
   43.9200  1.122420E-04
   44.0100  1.114987E-04
   44.1000  1.107628E-04
   44.1900  1.100334E-04
   44.2800  1.093121E-04
   44.3700  1.085971E-04
   44.4600  1.078893E-04
   44.5500  1.071885E-04
   44.6400  1.064946E-04
   44.7300  1.058068E-04
   44.8200  1.051259E-04
   44.9100  1.044516E-04
   45.0000  1.037841E-04
   45.0900  1.031224E-04
   45.1800  1.024672E-04
   45.2700  1.018184E-04
   45.3600  1.011753E-04
   45.4500  1.005386E-04
   45.5400  9.990811E-05
   45.6300  9.928304E-05
   45.7200  9.866493E-05
   45.8100  9.805132E-05
   45.9000  9.744379E-05
   45.9900  9.684219E-05
   46.0800  9.624655E-05
   46.1700  9.565596E-05
   46.2600  9.507043E-05
   46.3500  9.449219E-05
   46.4400  9.391732E-05
   46.5300  9.334886E-05
   46.6200  9.278520E-05
   46.7100  9.222631E-05
   46.8000  9.167368E-05
   46.8900  9.112568E-05
   46.9800  9.058233E-05
   47.0700  9.004354E-05
   47.1600  8.951077E-05
   47.2500  8.898175E-05
   47.3400  8.845858E-05
   47.4300  8.793915E-05
   47.5200  8.742547E-05
   47.6100  8.691609E-05
   47.7000  8.641097E-05
   47.7900  8.591077E-05
   47.8800  8.541403E-05
   47.9700  8.492285E-05
   48.0600  8.443574E-05
   48.1500  8.395339E-05
   48.2400  8.347436E-05
   48.3300  8.299998E-05
   48.4200  8.253023E-05
   48.5100  8.206435E-05
   48.6000  8.160232E-05
   48.6900  8.114411E-05
   48.7800  8.069103E-05
   48.8700  8.024104E-05
   48.9600  7.979538E-05
   49.0500  7.935341E-05
   49.1400  7.891573E-05
   49.2300  7.848167E-05
   49.3200  7.805115E-05
   49.4100  7.762413E-05
   49.5000  7.720129E-05
   49.5900  7.678189E-05
   49.6800  7.636593E-05
   49.7700  7.595401E-05
   49.8600  7.554545E-05
   49.9500  7.514020E-05
   50.0400  7.473889E-05
   50.1300  7.434021E-05
   50.2200  7.394541E-05
   50.3100  7.355445E-05
   50.4000  7.316604E-05
   50.4900  7.278137E-05
   50.5800  7.239919E-05
   50.6700  7.202139E-05
   50.7600  7.164600E-05
   50.8500  7.127362E-05
   50.9400  7.090550E-05
   51.0300  7.053911E-05
   51.1200  7.017689E-05
   51.2100  6.981700E-05
   51.3000  6.945999E-05
   51.3900  6.910707E-05
   51.4800  6.875575E-05
   51.5700  6.840787E-05
   51.6600  6.806339E-05
   51.7500  6.772105E-05
   51.8400  6.738205E-05
   51.9300  6.704578E-05
   52.0200  6.671160E-05
   52.1100  6.638067E-05
   52.2000  6.605240E-05
   52.2900  6.572733E-05
   52.3800  6.540427E-05
   52.4700  6.508436E-05
   52.5600  6.476643E-05
   52.6500  6.445102E-05
   52.7400  6.413871E-05
   52.8300  6.382887E-05
   52.9200  6.352091E-05
   53.0100  6.321654E-05
   53.1000  6.291406E-05
   53.1900  6.261394E-05
   53.2800  6.231622E-05
   53.3700  6.202140E-05
   53.4600  6.172837E-05
   53.5500  6.143765E-05
   53.6400  6.114982E-05
   53.7300  6.086368E-05
   53.8200  6.057982E-05
   53.9100  6.029874E-05
   54.0000  6.001935E-05
   54.0900  5.974325E-05
   54.1800  5.946771E-05
   54.2700  5.919542E-05
   54.3600  5.892474E-05
   54.4500  5.865674E-05
   54.5400  5.839084E-05
   54.6300  5.812704E-05
   54.7200  5.786479E-05
   54.8100  5.760512E-05
   54.9000  5.734752E-05
   54.9900  5.709089E-05
   55.0800  5.683733E-05
   55.1700  5.658576E-05
   55.2600  5.633566E-05
   55.3500  5.608752E-05
   55.4400  5.584132E-05
   55.5300  5.559705E-05
   55.6200  5.535524E-05
   55.7100  5.511480E-05
   55.8000  5.487627E-05
   55.8900  5.463908E-05
   55.9800  5.440477E-05
   56.0700  5.417132E-05
   56.1600  5.394017E-05
   56.2500  5.371085E-05
   56.3400  5.348334E-05
   56.4300  5.325709E-05
   56.5200  5.303265E-05
   56.6100  5.281045E-05
   56.7000  5.258901E-05
   56.7900  5.237028E-05
   56.8800  5.215230E-05
   56.9700  5.193701E-05
   57.0600  5.172243E-05
   57.1500  5.150954E-05
   57.2400  5.129928E-05
   57.3300  5.108922E-05
   57.4200  5.088130E-05
   57.5100  5.067548E-05
   57.6000  5.047033E-05
   57.6900  5.026727E-05
   57.7800  5.006579E-05
   57.8700  4.986542E-05
   57.9600  4.966664E-05
   58.0500  4.946988E-05
   58.1400  4.927420E-05
   58.2300  4.908005E-05
   58.3200  4.888697E-05
   58.4100  4.869587E-05
   58.5000  4.850579E-05
   58.5900  4.831724E-05
   58.6800  4.813015E-05
   58.7700  4.794455E-05
   58.8600  4.775992E-05
   58.9500  4.757722E-05
   59.0400  4.739550E-05
   59.1300  4.721523E-05
   59.2200  4.703636E-05
   59.3100  4.685845E-05
   59.4000  4.668239E-05
   59.4900  4.650683E-05
   59.5800  4.633354E-05
   59.6700  4.616073E-05
   59.7600  4.598973E-05
   59.8500  4.581964E-05
   59.9400  4.565088E-05
   60.0300  4.548348E-05
   60.1200  4.531695E-05
   60.2100  4.515218E-05
   60.3000  4.498827E-05
   60.3900  4.482522E-05
   60.4800  4.466390E-05
   60.5700  4.450342E-05
   60.6600  4.434423E-05
   60.7500  4.418672E-05
   60.8400  4.402961E-05
   60.9300  4.387375E-05
   61.0200  4.371913E-05
   61.1100  4.356573E-05
   61.2000  4.341357E-05
   61.2900  4.326217E-05
   61.3800  4.311157E-05
   61.4700  4.296302E-05
   61.5600  4.281438E-05
   61.6500  4.266778E-05
   61.7400  4.252192E-05
   61.8300  4.237681E-05
   61.9200  4.223329E-05
   62.0100  4.209051E-05
   62.1000  4.194885E-05
   62.1900  4.180794E-05
   62.2800  4.166815E-05
   62.3700  4.152949E-05
   62.4600  4.139153E-05
   62.5500  4.125508E-05
   62.6400  4.111893E-05
   62.7300  4.098428E-05
   62.8200  4.085031E-05
   62.9100  4.071743E-05
   63.0000  4.058522E-05
   63.0900  4.045447E-05
   63.1800  4.032439E-05
   63.2700  4.019537E-05
   63.3600  4.006699E-05
   63.4500  3.993965E-05
   63.5400  3.981336E-05
   63.6300  3.968770E-05
   63.7200  3.956305E-05
   63.8100  3.943904E-05
   63.9000  3.931603E-05
   63.9900  3.919443E-05
   64.0800  3.907305E-05
   64.1700  3.895264E-05
   64.2600  3.883324E-05
   64.3500  3.871481E-05
   64.4400  3.859698E-05
   64.5300  3.848012E-05
   64.6200  3.836421E-05
   64.7100  3.824850E-05
   64.8000  3.813413E-05
   64.8900  3.802071E-05
   64.9800  3.790746E-05
   65.0700  3.779555E-05
   65.1600  3.768455E-05
   65.2500  3.757374E-05
   65.3400  3.746420E-05
   65.4300  3.735521E-05
   65.5200  3.724714E-05
   65.6100  3.713960E-05
   65.7000  3.703296E-05
   65.7900  3.692721E-05
   65.8800  3.682199E-05
   65.9700  3.671727E-05
   66.0600  3.661382E-05
   66.1500  3.651124E-05
   66.2400  3.640879E-05
   66.3300  3.630720E-05
   66.4200  3.620648E-05
   66.5100  3.610662E-05
   66.6000  3.600687E-05
   66.6900  3.590835E-05
   66.7800  3.581029E-05
   66.8700  3.571309E-05
   66.9600  3.561672E-05
   67.0500  3.552045E-05
   67.1400  3.542538E-05
   67.2300  3.533076E-05
   67.3200  3.523696E-05
   67.4100  3.514361E-05
   67.5000  3.505109E-05
   67.5900  3.495899E-05
   67.6800  3.486770E-05
   67.7700  3.477721E-05
   67.8600  3.468716E-05
   67.9500  3.459790E-05
   68.0400  3.450908E-05
   68.1300  3.442102E-05
   68.2200  3.433375E-05
   68.3100  3.424690E-05
   68.4000  3.416082E-05
   68.4900  3.407479E-05
   68.5800  3.399025E-05
   68.6700  3.390575E-05
   68.7600  3.382166E-05
   68.8500  3.373867E-05
   68.9400  3.365608E-05
   69.0300  3.357387E-05
   69.1200  3.349243E-05
   69.2100  3.341171E-05
   69.3000  3.333103E-05
   69.3900  3.325179E-05
   69.4800  3.317223E-05
   69.5700  3.309408E-05
   69.6600  3.301596E-05
   69.7500  3.293857E-05
   69.8400  3.286153E-05
   69.9300  3.278522E-05
   70.0200  3.270926E-05
   70.1100  3.263437E-05
   70.2000  3.255913E-05
   70.2900  3.248529E-05
   70.3800  3.241144E-05
   70.4700  3.233865E-05
   70.5600  3.226586E-05
   70.6500  3.219376E-05
   70.7400  3.212233E-05
   70.8300  3.205124E-05
   70.9200  3.198084E-05
   71.0100  3.191078E-05
   71.1000  3.184138E-05
   71.1900  3.177232E-05
   71.2800  3.170392E-05
   71.3700  3.163585E-05
   71.4600  3.156844E-05
   71.5500  3.150136E-05
   71.6400  3.143493E-05
   71.7300  3.136882E-05
   71.8200  3.130368E-05
   71.9100  3.123853E-05
   72.0000  3.117371E-05
   72.0900  3.110984E-05
   72.1800  3.104629E-05
   72.2700  3.098304E-05
   72.3600  3.092042E-05
   72.4500  3.085811E-05
   72.5400  3.079642E-05
   72.6300  3.073536E-05
   72.7200  3.067428E-05
   72.8100  3.061413E-05
   72.9000  3.055395E-05
   72.9900  3.049472E-05
   73.0800  3.043577E-05
   73.1700  3.037711E-05
   73.2600  3.031906E-05
   73.3500  3.026129E-05
   73.4400  3.020413E-05
   73.5300  3.014725E-05
   73.6200  3.009096E-05
   73.7100  3.003495E-05
   73.8000  2.997953E-05
   73.8900  2.992439E-05
   73.9800  2.986984E-05
   74.0700  2.981556E-05
   74.1600  2.976154E-05
   74.2500  2.970843E-05
   74.3400  2.965527E-05
   74.4300  2.960268E-05
   74.5200  2.955067E-05
   74.6100  2.949892E-05
   74.7000  2.944743E-05
   74.7900  2.939651E-05
   74.8800  2.934617E-05
   74.9700  2.929607E-05
   75.0600  2.924622E-05
   75.1500  2.919694E-05
   75.2400  2.914790E-05
   75.3300  2.909912E-05
   75.4200  2.905120E-05
   75.5100  2.900352E-05
   75.6000  2.895610E-05
   75.6900  2.890923E-05
   75.7800  2.886227E-05
   75.8700  2.881619E-05
   75.9600  2.877034E-05
   76.0500  2.872503E-05
   76.1400  2.867965E-05
   76.2300  2.863512E-05
   76.3200  2.859051E-05
   76.4100  2.854675E-05
   76.5000  2.850291E-05
   76.5900  2.845992E-05
   76.6800  2.841684E-05
   76.7700  2.837460E-05
   76.8600  2.833228E-05
   76.9500  2.829048E-05
   77.0400  2.824922E-05
   77.1300  2.820818E-05
   77.2200  2.816735E-05
   77.3100  2.812673E-05
   77.4000  2.808695E-05
   77.4900  2.804738E-05
   77.5800  2.800803E-05
   77.6700  2.796888E-05
   77.7600  2.793056E-05
   77.8500  2.789215E-05
   77.9400  2.785425E-05
   78.0300  2.781655E-05
   78.1200  2.777937E-05
   78.2100  2.774239E-05
   78.3000  2.770561E-05
   78.3900  2.766965E-05
   78.4800  2.763358E-05
   78.5700  2.759802E-05
   78.6600  2.756296E-05
   78.7500  2.752780E-05
   78.8400  2.749344E-05
   78.9300  2.745897E-05
   79.0200  2.742501E-05
   79.1100  2.739154E-05
   79.2000  2.735825E-05
   79.2900  2.732517E-05
   79.3800  2.729288E-05
   79.4700  2.726049E-05
   79.5600  2.722858E-05
   79.6500  2.719685E-05
   79.7400  2.716532E-05
   79.8300  2.713428E-05
   79.9200  2.710372E-05
   80.0100  2.707304E-05
   80.1000  2.704315E-05
   80.1900  2.701316E-05
   80.2800  2.698393E-05
   80.3700  2.695489E-05
   80.4600  2.692573E-05
   80.5500  2.689706E-05
   80.6400  2.686885E-05
   80.7300  2.684113E-05
   80.8200  2.681328E-05
   80.9100  2.678591E-05
   81.0000  2.675902E-05
   81.0900  2.673230E-05
   81.1800  2.670605E-05
   81.2700  2.667968E-05
   81.3600  2.665378E-05
   81.4500  2.662835E-05
   81.5400  2.660309E-05
   81.6300  2.657801E-05
   81.7200  2.655339E-05
   81.8100  2.652893E-05
   81.9000  2.650495E-05
   81.9900  2.648113E-05
   82.0800  2.645778E-05
   82.1700  2.643459E-05
   82.2600  2.641157E-05
   82.3500  2.638901E-05
   82.4400  2.636632E-05
   82.5300  2.634439E-05
   82.6200  2.632291E-05
   82.7100  2.630130E-05
   82.8000  2.628016E-05
   82.8900  2.625917E-05
   82.9800  2.623835E-05
   83.0700  2.621827E-05
   83.1600  2.619806E-05
   83.2500  2.617830E-05
   83.3400  2.615871E-05
   83.4300  2.613956E-05
   83.5200  2.612058E-05
   83.6100  2.610175E-05
   83.7000  2.608337E-05
   83.7900  2.606545E-05
   83.8800  2.604738E-05
   83.9700  2.602977E-05
   84.0600  2.601259E-05
   84.1500  2.599558E-05
   84.2400  2.597872E-05
   84.3300  2.596231E-05
   84.4200  2.594605E-05
   84.5100  2.593023E-05
   84.6000  2.591457E-05
   84.6900  2.589907E-05
   84.7800  2.588400E-05
   84.8700  2.586909E-05
   84.9600  2.585461E-05
   85.0500  2.584029E-05
   85.1400  2.582612E-05
   85.2300  2.581239E-05
   85.3200  2.579880E-05
   85.4100  2.578538E-05
   85.5000  2.577268E-05
   85.5900  2.575983E-05
   85.6800  2.574743E-05
   85.7700  2.573517E-05
   85.8600  2.572306E-05
   85.9500  2.571139E-05
   86.0400  2.570015E-05
   86.1300  2.568878E-05
   86.2200  2.567812E-05
   86.3100  2.566732E-05
   86.4000  2.565696E-05
   86.4900  2.564675E-05
   86.5800  2.563696E-05
   86.6700  2.562761E-05
   86.7600  2.561812E-05
   86.8500  2.560907E-05
   86.9400  2.560044E-05
   87.0300  2.559167E-05
   87.1200  2.558333E-05
   87.2100  2.557543E-05
   87.3000  2.556738E-05
   87.3900  2.556005E-05
   87.4800  2.555286E-05
   87.5700  2.554582E-05
   87.6600  2.553891E-05
   87.7500  2.553245E-05
   87.8400  2.552640E-05
   87.9300  2.552050E-05
   88.0200  2.551475E-05
   88.1100  2.550914E-05
   88.2000  2.550394E-05
   88.2900  2.549890E-05
   88.3800  2.549429E-05
   88.4700  2.548981E-05
   88.5600  2.548549E-05
   88.6500  2.548187E-05
   88.7400  2.547811E-05
   88.8300  2.547449E-05
   88.9200  2.547129E-05
   89.0100  2.546853E-05
   89.1000  2.546591E-05
   89.1900  2.546343E-05
   89.2800  2.546137E-05
   89.3700  2.545945E-05
   89.4600  2.545768E-05
   89.5500  2.545633E-05
   89.6400  2.545513E-05
   89.7300  2.545435E-05
   89.8200  2.545371E-05
   89.9100  2.545321E-05
   90.0000  2.545314E-05