 W/B4C d=3.5nm s=0.2nm N=40 at 350.eV, P=1.
 Angle (deg), Reflectivity, Phase(deg)
   0.000000  1.00000  180.000
   0.100000  0.981542  178.698
   0.200000  0.963418  177.396
   0.300000  0.945613  176.094
   0.400000  0.928115  174.791
   0.500000  0.910913  173.488
   0.600000  0.893994  172.184
   0.700000  0.877348  170.880
   0.800000  0.860964  169.574
   0.900000  0.844832  168.268
   1.00000  0.828943  166.961
   1.10000  0.813288  165.653
   1.20000  0.797856  164.343
   1.30000  0.782642  163.033
   1.40000  0.767634  161.720
   1.50000  0.752828  160.406
   1.60000  0.738214  159.091
   1.70000  0.723787  157.773
   1.80000  0.709540  156.454
   1.90000  0.695466  155.133
   2.00000  0.681559  153.810
   2.10000  0.667812  152.485
   2.20000  0.654221  151.157
   2.30000  0.640778  149.827
   2.40000  0.627483  148.495
   2.50000  0.614325  147.160
   2.60000  0.601303  145.823
   2.70000  0.588412  144.483
   2.80000  0.575648  143.141
   2.90000  0.563006  141.796
   3.00000  0.550483  140.448
   3.10000  0.538076  139.097
   3.20000  0.525781  137.744
   3.30000  0.513595  136.388
   3.40000  0.501516  135.029
   3.50000  0.489541  133.667
   3.60000  0.477668  132.303
   3.70000  0.465895  130.937
   3.80000  0.454219  129.568
   3.90000  0.442640  128.196
   4.00000  0.431157  126.822
   4.10000  0.419766  125.447
   4.20000  0.408471  124.069
   4.30000  0.397270  122.690
   4.40000  0.386165  121.310
   4.50000  0.375153  119.929
   4.60000  0.364241  118.547
   4.70000  0.353424  117.166
   4.80000  0.342705  115.784
   4.90000  0.332090  114.404
   5.00000  0.321581  113.025
   5.10000  0.311178  111.648
   5.20000  0.300888  110.275
   5.30000  0.290714  108.905
   5.40000  0.280662  107.541
   5.50000  0.270739  106.182
   5.60000  0.260947  104.830
   5.70000  0.251296  103.486
   5.80000  0.241795  102.152
   5.90000  0.232445  100.829
   6.00000  0.223259  99.5177
   6.10000  0.214244  98.2204
   6.20000  0.205411  96.9385
   6.30000  0.196769  95.6737
   6.40000  0.188322  94.4276
   6.50000  0.180083  93.2019
   6.60000  0.172057  91.9982
   6.70000  0.164257  90.8183
   6.80000  0.156686  89.6637
   6.90000  0.149352  88.5361
   7.00000  0.142262  87.4369
   7.10000  0.135419  86.3673
   7.20000  0.128830  85.3287
   7.30000  0.122492  84.3221
   7.40000  0.116412  83.3484
   7.50000  0.110587  82.4082
   7.60000  0.105016  81.5023
   7.70000  9.969641E-02  80.6309
   7.80000  9.462667E-02  79.7941
   7.90000  8.979893E-02  78.9922
   8.00000  8.521044E-02  78.2248
   8.10000  8.085456E-02  77.4914
   8.20000  7.672285E-02  76.7920
   8.30000  7.280774E-02  76.1257
   8.40000  6.910213E-02  75.4920
   8.50000  6.559651E-02  74.8900
   8.60000  6.228260E-02  74.3190
   8.70000  5.915215E-02  73.7780
   8.80000  5.619669E-02  73.2657
   8.90000  5.340614E-02  72.7818
   9.00000  5.077314E-02  72.3247
   9.10000  4.828849E-02  71.8937
   9.20000  4.594371E-02  71.4880
   9.30000  4.373227E-02  71.1060
   9.40000  4.164584E-02  70.7472
   9.50000  3.967769E-02  70.4102
   9.60000  3.781932E-02  70.0948
   9.70000  3.606617E-02  69.7993
   9.80000  3.441071E-02  69.5233
   9.90000  3.284778E-02  69.2656
   10.0000  3.137105E-02  69.0258
   10.1000  2.997589E-02  68.8028
   10.2000  2.865731E-02  68.5959
   10.3000  2.741042E-02  68.4043
   10.4000  2.623069E-02  68.2277
   10.5000  2.511433E-02  68.0652
   10.6000  2.405764E-02  67.9158
   10.7000  2.305639E-02  67.7798
   10.8000  2.210781E-02  67.6560
   10.9000  2.120853E-02  67.5439
   11.0000  2.035562E-02  67.4432
   11.1000  1.954641E-02  67.3532
   11.2000  1.877826E-02  67.2735
   11.3000  1.804858E-02  67.2039
   11.4000  1.735519E-02  67.1440
   11.5000  1.669616E-02  67.0931
   11.6000  1.606930E-02  67.0512
   11.7000  1.547310E-02  67.0172
   11.8000  1.490530E-02  66.9919
   11.9000  1.436468E-02  66.9742
   12.0000  1.384955E-02  66.9641
   12.1000  1.335834E-02  66.9616
   12.2000  1.289022E-02  66.9655
   12.3000  1.244347E-02  66.9765
   12.4000  1.201710E-02  66.9940
   12.5000  1.160994E-02  67.0178
   12.6000  1.122099E-02  67.0478
   12.7000  1.084938E-02  67.0834
   12.8000  1.049404E-02  67.1250
   12.9000  1.015425E-02  67.1720
   13.0000  9.829157E-03  67.2243
   13.1000  9.517925E-03  67.2819
   13.2000  9.220035E-03  67.3442
   13.3000  8.934543E-03  67.4119
   13.4000  8.661036E-03  67.4842
   13.5000  8.398883E-03  67.5610
   13.6000  8.147545E-03  67.6422
   13.7000  7.906352E-03  67.7282
   13.8000  7.675021E-03  67.8178
   13.9000  7.452875E-03  67.9120
   14.0000  7.239561E-03  68.0102
   14.1000  7.034690E-03  68.1124
   14.2000  6.837862E-03  68.2186
   14.3000  6.648708E-03  68.3284
   14.4000  6.466839E-03  68.4418
   14.5000  6.291925E-03  68.5587
   14.6000  6.123634E-03  68.6791
   14.7000  5.961647E-03  68.8035
   14.8000  5.805771E-03  68.9312
   14.9000  5.655735E-03  69.0622
   15.0000  5.511246E-03  69.1964
   15.1000  5.372092E-03  69.3333
   15.2000  5.237918E-03  69.4736
   15.3000  5.108565E-03  69.6171
   15.4000  4.983885E-03  69.7638
   15.5000  4.863672E-03  69.9139
   15.6000  4.747810E-03  70.0668
   15.7000  4.636059E-03  70.2223
   15.8000  4.528210E-03  70.3801
   15.9000  4.424055E-03  70.5406
   16.0000  4.323435E-03  70.7044
   16.1000  4.226293E-03  70.8716
   16.2000  4.132567E-03  71.0418
   16.3000  4.042141E-03  71.2142
   16.4000  3.954811E-03  71.3887
   16.5000  3.870376E-03  71.5652
   16.6000  3.788673E-03  71.7442
   16.7000  3.709628E-03  71.9264
   16.8000  3.633235E-03  72.1121
   16.9000  3.559482E-03  72.3009
   17.0000  3.488292E-03  72.4919
   17.1000  3.419522E-03  72.6838
   17.2000  3.352910E-03  72.8774
   17.3000  3.288340E-03  73.0731
   17.4000  3.225761E-03  73.2722
   17.5000  3.165240E-03  73.4753
   17.6000  3.106842E-03  73.6814
   17.7000  3.050508E-03  73.8896
   17.8000  2.996075E-03  74.0982
   17.9000  2.943309E-03  74.3072
   18.0000  2.892025E-03  74.5183
   18.1000  2.842233E-03  74.7331
   18.2000  2.794062E-03  74.9527
   18.3000  2.747638E-03  75.1760
   18.4000  2.702973E-03  75.4005
   18.5000  2.659866E-03  75.6248
   18.6000  2.618035E-03  75.8487
   18.7000  2.577285E-03  76.0740
   18.8000  2.537632E-03  76.3031
   18.9000  2.499239E-03  76.5380
   19.0000  2.462337E-03  76.7775
   19.1000  2.426987E-03  77.0187
   19.2000  2.392996E-03  77.2585
   19.3000  2.360040E-03  77.4963
   19.4000  2.327851E-03  77.7342
   19.5000  2.296403E-03  77.9762
   19.6000  2.265917E-03  78.2252
   19.7000  2.236719E-03  78.4803
   19.8000  2.208957E-03  78.7381
   19.9000  2.182480E-03  78.9938
   20.0000  2.156920E-03  79.2452
   20.1000  2.131890E-03  79.4947
   20.2000  2.107297E-03  79.7477
   20.3000  2.083367E-03  80.0089
   20.4000  2.060535E-03  80.2788
   20.5000  2.039090E-03  80.5529
   20.6000  2.018968E-03  80.8248
   20.7000  1.999760E-03  81.0903
   20.8000  1.980969E-03  81.3507
   20.9000  1.962342E-03  81.6126
   21.0000  1.944062E-03  81.8833
   21.1000  1.926654E-03  82.1656
   21.2000  1.910589E-03  82.4554
   21.3000  1.895972E-03  82.7444
   21.4000  1.882424E-03  83.0249
   21.5000  1.869314E-03  83.2963
   21.6000  1.856179E-03  83.5651
   21.7000  1.843055E-03  83.8418
   21.8000  1.830485E-03  84.1329
   21.9000  1.819155E-03  84.4364
   22.0000  1.809439E-03  84.7426
   22.1000  1.801102E-03  85.0402
   22.2000  1.793433E-03  85.3237
   22.3000  1.785692E-03  85.5987
   22.4000  1.777647E-03  85.8770
   22.5000  1.769732E-03  86.1712
   22.6000  1.762819E-03  86.4836
   22.7000  1.757634E-03  86.8056
   22.8000  1.754244E-03  87.1218
   22.9000  1.752013E-03  87.4207
   23.0000  1.749933E-03  87.7023
   23.1000  1.747353E-03  87.9796
   23.2000  1.744411E-03  88.2696
   23.3000  1.742014E-03  88.5828
   23.4000  1.741275E-03  88.9147
   23.5000  1.742781E-03  89.2491
   23.6000  1.746180E-03  89.5665
   23.7000  1.750350E-03  89.8592
   23.8000  1.754152E-03  90.1350
   23.9000  1.757147E-03  90.4143
   24.0000  1.760023E-03  90.7168
   24.1000  1.764153E-03  91.0478
   24.2000  1.770790E-03  91.3943
   24.3000  1.780230E-03  91.7320
   24.4000  1.791562E-03  92.0411
   24.5000  1.803223E-03  92.3193
   24.6000  1.814008E-03  92.5846
   24.7000  1.823924E-03  92.8643
   24.8000  1.834267E-03  93.1774
   24.9000  1.846947E-03  93.5213
   25.0000  1.863246E-03  93.8733
   25.1000  1.883011E-03  94.2027
   25.2000  1.904666E-03  94.4916
   25.3000  1.926200E-03  94.7464
   25.4000  1.946477E-03  94.9950
   25.5000  1.966075E-03  95.2694
   25.6000  1.987159E-03  95.5860
   25.7000  2.012158E-03  95.9331
   25.8000  2.042366E-03  96.2776
   25.9000  2.077023E-03  96.5837
   26.0000  2.113743E-03  96.8374
   26.1000  2.150009E-03  97.0554
   26.2000  2.184855E-03  97.2748
   26.3000  2.219715E-03  97.5321
   26.4000  2.257833E-03  97.8383
   26.5000  2.302443E-03  98.1719
   26.6000  2.354827E-03  98.4884
   26.7000  2.413485E-03  98.7497
   26.8000  2.474964E-03  98.9464
   26.9000  2.536057E-03  99.1048
   27.0000  2.596098E-03  99.2722
   27.1000  2.657765E-03  99.4873
   27.2000  2.726031E-03  99.7566
   27.3000  2.805452E-03  100.047
   27.4000  2.897572E-03  100.303
   27.5000  2.999927E-03  100.484
   27.6000  3.107553E-03  100.585
   27.7000  3.216233E-03  100.642
   27.8000  3.325717E-03  100.711
   27.9000  3.440837E-03  100.834
   28.0000  3.569736E-03  101.013
   28.1000  3.719783E-03  101.202
   28.2000  3.893713E-03  101.336
   28.3000  4.088084E-03  101.367
   28.4000  4.295689E-03  101.293
   28.5000  4.510649E-03  101.159
   28.6000  4.733630E-03  101.029
   28.7000  4.974043E-03  100.950
   28.8000  5.247346E-03  100.918
   28.9000  5.568406E-03  100.875
   29.0000  5.944843E-03  100.740
   29.1000  6.373900E-03  100.453
   29.2000  6.845662E-03  100.009
   29.3000  7.352259E-03  99.4575
   29.4000  7.898299E-03  98.8698
   29.5000  8.506439E-03  98.2939
   29.6000  9.214880E-03  97.7170
   29.7000  1.006559E-02  97.0600
   29.8000  1.108973E-02  96.2114
   29.9000  1.229801E-02  95.0810
   30.0000  1.368460E-02  93.6394
   30.1000  1.524481E-02  91.9213
   30.2000  1.700212E-02  89.9851
   30.3000  1.902974E-02  87.8555
   30.4000  2.144928E-02  85.4726
   30.5000  2.439577E-02  82.6782
   30.6000  2.794930E-02  79.2603
   30.7000  3.205279E-02  75.0321
   30.8000  3.644873E-02  69.9077
   30.9000  4.068240E-02  63.9307
   31.0000  4.419187E-02  57.2562
   31.1000  4.645187E-02  50.1075
   31.2000  4.712776E-02  42.7331
   31.3000  4.615266E-02  35.3715
   31.4000  4.372188E-02  28.2339
   31.5000  4.021163E-02  21.4980
   31.6000  3.607409E-02  15.3050
   31.7000  3.174213E-02  9.75766
   31.8000  2.756571E-02  4.91359
   31.9000  2.378040E-02  0.775478
   32.0000  2.049944E-02 -2.71448
   32.1000  1.773677E-02 -5.66788
   32.2000  1.543535E-02 -8.22144
   32.3000  1.350505E-02 -10.4977
   32.4000  1.185577E-02 -12.5683
   32.5000  1.042059E-02 -14.4410
   32.6000  9.162080E-03 -16.0777
   32.7000  8.066159E-03 -17.4311
   32.8000  7.128937E-03 -18.4872
   32.9000  6.343614E-03 -19.2899
   33.0000  5.692659E-03 -19.9343
   33.1000  5.148345E-03 -20.5296
   33.2000  4.679426E-03 -21.1489
   33.3000  4.259820E-03 -21.7984
   33.4000  3.874029E-03 -22.4203
   33.5000  3.518608E-03 -22.9272
   33.6000  3.198094E-03 -23.2515
   33.7000  2.918451E-03 -23.3848
   33.8000  2.681493E-03 -23.3897
   33.9000  2.482430E-03 -23.3733
   34.0000  2.311083E-03 -23.4325
   34.1000  2.155787E-03 -23.6037
   34.2000  2.007825E-03 -23.8485
   34.3000  1.864062E-03 -24.0727
   34.4000  1.726757E-03 -24.1764
   34.5000  1.601029E-03 -24.1039
   34.6000  1.491410E-03 -23.8772
   34.7000  1.399111E-03 -23.5878
   34.8000  1.321254E-03 -23.3519
   34.9000  1.252232E-03 -23.2509
   35.0000  1.186229E-03 -23.2880
   35.1000  1.119651E-03 -23.3900
   35.2000  1.052279E-03 -23.4438
   35.3000  9.868057E-04 -23.3517
   35.4000  9.270159E-04 -23.0805
   35.5000  8.756817E-04 -22.6812
   35.6000  8.331570E-04 -22.2679
   35.7000  7.972851E-04 -21.9598
   35.8000  7.644480E-04 -21.8175
   35.9000  7.312704E-04 -21.8167
   36.0000  6.960909E-04 -21.8602
   36.1000  6.594611E-04 -21.8260
   36.2000  6.236318E-04 -21.6240
   36.3000  5.912664E-04 -21.2405
   36.4000  5.640865E-04 -20.7512
   36.5000  5.420891E-04 -20.2836
   36.6000  5.235871E-04 -19.9543
   36.7000  5.060889E-04 -19.8094
   36.8000  4.874509E-04 -19.8036
   36.9000  4.667968E-04 -19.8251
   37.0000  4.447864E-04 -19.7471
   37.1000  4.231706E-04 -19.4850
   37.2000  4.038677E-04 -19.0394
   37.3000  3.880436E-04 -18.5002
   37.4000  3.755841E-04 -18.0040
   37.5000  3.652399E-04 -17.6667
   37.6000  3.552037E-04 -17.5259
   37.7000  3.439737E-04 -17.5262
   37.8000  3.309930E-04 -17.5471
   37.9000  3.168145E-04 -17.4580
   38.0000  3.027651E-04 -17.1751
   38.1000  2.902797E-04 -16.7017
   38.2000  2.802499E-04 -16.1338
   38.3000  2.726192E-04 -15.6135
   38.4000  2.664660E-04 -15.2610
   38.5000  2.604579E-04 -15.1160
   38.6000  2.534446E-04 -15.1229
   38.7000  2.449614E-04 -15.1592
   38.8000  2.353801E-04 -15.0888
   38.9000  2.256908E-04 -14.8197
   39.0000  2.170171E-04 -14.3488
   39.1000  2.101156E-04 -13.7662
   39.2000  2.050437E-04 -13.2172
   39.3000  2.011752E-04 -12.8314
   39.4000  1.975081E-04 -12.6629
   39.5000  1.931006E-04 -12.6676
   39.6000  1.874884E-04 -12.7277
   39.7000  1.808419E-04 -12.7012
   39.8000  1.738659E-04 -12.4822
   39.9000  1.674518E-04 -12.0461
   40.0000  1.622961E-04 -11.4662
   40.1000  1.585920E-04 -10.8837
   40.2000  1.559759E-04 -10.4428
   40.3000  1.537108E-04 -10.2217
   40.4000  1.510058E-04 -10.2026
   40.5000  1.473582E-04 -10.2819
   40.6000  1.427458E-04 -10.3167
   40.7000  1.376126E-04 -10.1816
   40.8000  1.326505E-04 -9.82014
   40.9000  1.285069E-04 -9.27288
   41.0000  1.255016E-04 -8.66496
   41.1000  1.235131E-04 -8.15066
   41.2000  1.220494E-04 -7.84184
   41.3000  1.204613E-04 -7.76065
   41.4000  1.182232E-04 -7.83419
   41.5000  1.151344E-04 -7.92916
   41.6000  1.113918E-04 -7.90346
   41.7000  1.074868E-04 -7.66209
   41.8000  1.039873E-04 -7.19666
   41.9000  1.013106E-04 -6.59606
   42.0000  9.954480E-05 -6.00985
   42.1000  9.844251E-05 -5.58170
   42.2000  9.752448E-05 -5.38685
   42.3000  9.628264E-05 -5.40279
   42.4000  9.438642E-05 -5.52525
   42.5000  9.180423E-05 -5.60946
   42.6000  8.880579E-05 -5.52485
   42.7000  8.583253E-05 -5.20581
   42.8000  8.332577E-05 -4.67964
   42.9000  8.154218E-05 -4.06254
   43.0000  8.046762E-05 -3.51109
   43.1000  7.982444E-05 -3.15368
   43.2000  7.920131E-05 -3.03712
   43.3000  7.821024E-05 -3.11277
   43.4000  7.663806E-05 -3.26087
   43.5000  7.452129E-05 -3.33572
   43.6000  7.212155E-05 -3.21757
   43.7000  6.981481E-05 -2.85893
   43.8000  6.794079E-05 -2.30636
   43.9000  6.667570E-05 -1.68711
   44.0000  6.597012E-05 -1.15791
   44.1000  6.557849E-05 -0.837245
   44.2000  6.515742E-05 -0.759276
   44.3000  6.439804E-05 -0.865986
   44.4000  6.314475E-05 -1.03356
   44.5000  6.144142E-05 -1.11766
   44.6000  5.950983E-05 -1.00310
   44.7000  5.766063E-05 -0.645200
   44.8000  5.616999E-05 -9.321306E-02
   44.9000  5.518239E-05  0.527123
   45.0000  5.466109E-05  1.06005
   45.1000  5.440948E-05  1.38615
   45.2000  5.414727E-05  1.46734
   45.3000  5.361592E-05  1.35541
   45.4000  5.267457E-05  1.16951
   45.5000  5.134073E-05  1.05119
   45.6000  4.978271E-05  1.12093
   45.7000  4.824961E-05  1.43365
   45.8000  4.697919E-05  1.95671
   45.9000  4.611518E-05  2.57599
   46.0000  4.565841E-05  3.13857
   46.1000  4.546965E-05  3.51478
   46.2000  4.532905E-05  3.64619
   46.3000  4.501263E-05  3.56348
   46.4000  4.437126E-05  3.36892
   46.5000  4.337991E-05  3.19978
   46.6000  4.214293E-05  3.18485
   46.7000  4.085108E-05  3.40367
   46.8000  3.971078E-05  3.85471
   46.9000  3.887547E-05  4.45249
   47.0000  3.839422E-05  5.05571
   47.1000  3.819537E-05  5.52044
   47.2000  3.812184E-05  5.75600
   47.3000  3.798110E-05  5.75390
   47.4000  3.761568E-05  5.58522
   47.5000  3.695303E-05  5.37239
   47.6000  3.602643E-05  5.25013
   47.7000  3.496033E-05  5.32598
   47.8000  3.392447E-05  5.64389
   47.9000  3.307693E-05  6.16676
   48.0000  3.251074E-05  6.78354
   48.1000  3.222742E-05  7.34856
   48.2000  3.213858E-05  7.73581
   48.3000  3.209934E-05  7.88385
   48.4000  3.195667E-05  7.81153
   48.5000  3.159911E-05  7.60646
   48.6000  3.099218E-05  7.39470
   48.7000  3.018435E-05  7.30318
   48.8000  2.929020E-05  7.42374
   48.9000  2.844945E-05  7.78264
   49.0000  2.778425E-05  8.32845
   49.1000  2.735833E-05  8.94427
   49.2000  2.716031E-05  9.48941
   49.3000  2.711128E-05  9.84865
   49.4000  2.708964E-05  9.97055
   49.5000  2.697315E-05  9.88041
   49.6000  2.667517E-05  9.66592
   49.7000  2.616965E-05  9.44847
   49.8000  2.549712E-05  9.34971
   49.9000  2.475121E-05  9.45822
   50.0000  2.404410E-05  9.80088
   50.1000  2.347713E-05  10.3323
   50.2000  2.310407E-05  10.9444
   50.3000  2.292351E-05  11.5022
   50.4000  2.287701E-05  11.8904
   50.5000  2.286941E-05  12.0496
   50.6000  2.280032E-05  11.9922
   50.7000  2.259234E-05  11.7922
   50.8000  2.221293E-05  11.5610
   50.9000  2.168331E-05  11.4175
   51.0000  2.106830E-05  11.4563
   51.1000  2.045697E-05  11.7224
   51.2000  1.993562E-05  12.1950
   51.3000  1.956269E-05  12.7887
   51.4000  1.935386E-05  13.3801
   51.5000  1.927755E-05  13.8470
   51.6000  1.926903E-05  14.1085
   51.7000  1.924639E-05  14.1462
   51.8000  1.913628E-05  14.0057
   51.9000  1.889514E-05  13.7773
   52.0000  1.851661E-05  13.5737
   52.1000  1.803543E-05  13.4993
   52.2000  1.751353E-05  13.6265
   52.3000  1.702338E-05  13.9733
   52.4000  1.662706E-05  14.4958
   52.5000  1.635878E-05  15.0985
   52.6000  1.621915E-05  15.6607
   52.7000  1.617416E-05  16.0767
   52.8000  1.616697E-05  16.2850
   52.9000  1.613426E-05  16.2836
   53.0000  1.602198E-05  16.1255
   53.1000  1.580084E-05  15.9012
   53.2000  1.547175E-05  15.7153
   53.3000  1.506480E-05  15.6631
   53.4000  1.463054E-05  15.8069
   53.5000  1.422410E-05  16.1602
   53.6000  1.389366E-05  16.6800
   53.7000  1.366567E-05  17.2769
   53.8000  1.354025E-05  17.8400
   53.9000  1.349252E-05  18.2694
   54.0000  1.347951E-05  18.5049
   54.1000  1.345186E-05  18.5387
   54.2000  1.336648E-05  18.4136
   54.3000  1.319814E-05  18.2079
   54.4000  1.294225E-05  18.0177
   54.5000  1.261758E-05  17.9339
   54.6000  1.225931E-05  18.0235
   54.7000  1.191074E-05  18.3123
   54.8000  1.160978E-05  18.7788
   54.9000  1.138393E-05  19.3537
   55.0000  1.124041E-05  19.9403
   55.1000  1.116809E-05  20.4398
   55.2000  1.113927E-05  20.7787
   55.3000  1.111860E-05  20.9258
   55.4000  1.106982E-05  20.8977
   55.5000  1.096658E-05  20.7489
   55.6000  1.079544E-05  20.5600
   55.7000  1.056058E-05  20.4175
   55.8000  1.028099E-05  20.3982
   55.9000  9.985415E-06  20.5524
   56.0000  9.704964E-06  20.8924
   56.1000  9.467125E-06  21.3871
   56.2000  9.288585E-06  21.9686
   56.3000  9.172431E-06  22.5479
   56.4000  9.108673E-06  23.0377
   56.5000  9.076085E-06  23.3759
   56.6000  9.047993E-06  23.5374
   56.7000  8.999315E-06  23.5368
   56.8000  8.909838E-06  23.4231
   56.9000  8.770313E-06  23.2659
   57.0000  8.582154E-06  23.1429
   57.1000  8.357822E-06  23.1243
   57.2000  8.117712E-06  23.2588
   57.3000  7.883698E-06  23.5660
   57.4000  7.676762E-06  24.0277
   57.5000  7.510731E-06  24.5934
   57.6000  7.391376E-06  25.1886
   57.7000  7.314721E-06  25.7335
   57.8000  7.268387E-06  26.1628
   57.9000  7.235470E-06  26.4373
   58.0000  7.196908E-06  26.5531
   58.1000  7.136203E-06  26.5373
   58.2000  7.042491E-06  26.4411
   58.3000  6.911927E-06  26.3296
   58.4000  6.748421E-06  26.2696
   58.5000  6.562263E-06  26.3187
   58.6000  6.368139E-06  26.5142
   58.7000  6.181296E-06  26.8683
   58.8000  6.015276E-06  27.3621
   58.9000  5.879382E-06  27.9497
   59.0000  5.777133E-06  28.5658
   59.1000  5.705634E-06  29.1419
   59.2000  5.657232E-06  29.6180
   59.3000  5.620340E-06  29.9574
   59.4000  5.581845E-06  30.1515
   59.5000  5.530654E-06  30.2163
   59.6000  5.457730E-06  30.1926
   59.7000  5.359228E-06  30.1332
   59.8000  5.235649E-06  30.0975
   59.9000  5.092507E-06  30.1404
   60.0000  4.938471E-06  30.3047
   60.1000  4.783422E-06  30.6168
   60.2000  4.637946E-06  31.0758
   60.3000  4.510060E-06  31.6583
   60.4000  4.404949E-06  32.3182
   60.5000  4.324006E-06  32.9961
   60.6000  4.264902E-06  33.6290
   60.7000  4.221669E-06  34.1666
   60.8000  4.186502E-06  34.5746
   60.9000  4.151032E-06  34.8420
   61.0000  4.106717E-06  34.9845
   61.1000  4.047582E-06  35.0347
   61.2000  3.970338E-06  35.0382
   61.3000  3.874368E-06  35.0511
   61.4000  3.762618E-06  35.1266
   61.5000  3.640298E-06  35.3123
   61.6000  3.514147E-06  35.6437
   61.7000  3.391679E-06  36.1345
   61.8000  3.279663E-06  36.7768
   61.9000  3.183206E-06  37.5393
   62.0000  3.105174E-06  38.3710
   62.1000  3.045833E-06  39.2077
   62.2000  3.002667E-06  39.9869
   62.3000  2.971318E-06  40.6534
   62.4000  2.945569E-06  41.1758
   62.5000  2.918991E-06  41.5425
   62.6000  2.885369E-06  41.7683
   62.7000  2.839872E-06  41.8870
   62.8000  2.779536E-06  41.9496
   62.9000  2.703712E-06  42.0175
   63.0000  2.614385E-06  42.1503
   63.1000  2.515119E-06  42.4114
   63.2000  2.411477E-06  42.8461
   63.3000  2.309326E-06  43.4872
   63.4000  2.214759E-06  44.3364
   63.5000  2.132527E-06  45.3725
   63.6000  2.066163E-06  46.5374
   63.7000  2.016809E-06  47.7559
   63.8000  1.983460E-06  48.9406
   63.9000  1.963109E-06  50.0094
   64.0000  1.951005E-06  50.9013
   64.1000  1.941494E-06  51.5860
   64.2000  1.928893E-06  52.0586
   64.3000  1.907814E-06  52.3540
   64.4000  1.874460E-06  52.5265
   64.5000  1.826822E-06  52.6480
   64.6000  1.764939E-06  52.8030
   64.7000  1.691047E-06  53.0785
   64.8000  1.608999E-06  53.5621
   64.9000  1.524126E-06  54.3189
   65.0000  1.442162E-06  55.3962
   65.1000  1.368508E-06  56.8042
   65.2000  1.307754E-06  58.5025
   65.3000  1.262848E-06  60.4046
   65.4000  1.234813E-06  62.3857
   65.5000  1.222570E-06  64.3008
   65.6000  1.223078E-06  66.0219
   65.7000  1.231830E-06  67.4584
   65.8000  1.243411E-06  68.5605
   65.9000  1.252098E-06  69.3440
   66.0000  1.252856E-06  69.8530
   66.1000  1.241699E-06  70.1781
   66.2000  1.216477E-06  70.4223
   66.3000  1.176958E-06  70.7015
   66.4000  1.124961E-06  71.1468
   66.5000  1.064157E-06  71.8820
   66.6000  9.993990E-07  73.0197
   66.7000  9.363418E-07  74.6517
   66.8000  8.806916E-07  76.8076
   66.9000  8.373568E-07  79.4524
   67.0000  8.098907E-07  82.4594
   67.1000  8.001386E-07  85.6217
   67.2000  8.078660E-07  88.6962
   67.3000  8.309311E-07  91.4676
   67.4000  8.653490E-07  93.7705
   67.5000  9.059005E-07  95.5441
   67.6000  9.468797E-07  96.8059
   67.7000  9.825109E-07  97.6361
   67.8000  1.007827E-06  98.1441
   67.9000  1.019203E-06  98.4678
   68.0000  1.014916E-06  98.7544
   68.1000  9.952256E-07  99.1526
   68.2000  9.625289E-07  99.8162
   68.3000  9.208364E-07  100.882
   68.4000  8.757347E-07  102.478
   68.5000  8.334130E-07  104.679
   68.6000  8.002118E-07  107.496
   68.7000  7.816527E-07  110.829
   68.8000  7.820657E-07  114.475
   68.9000  8.040392E-07  118.156
   69.0000  8.478842E-07  121.575
   69.1000  9.118335E-07  124.503
   69.2000  9.920976E-07  126.810
   69.3000  1.083142E-06  128.474
   69.4000  1.178478E-06  129.549
   69.5000  1.271128E-06  130.134
   69.6000  1.354223E-06  130.354
   69.7000  1.422204E-06  130.337
   69.8000  1.471136E-06  130.218
   69.9000  1.498823E-06  130.119
   70.0000  1.505883E-06  130.165
   70.1000  1.494853E-06  130.467
   70.2000  1.470552E-06  131.125
   70.3000  1.439689E-06  132.220
   70.4000  1.410119E-06  133.800
   70.5000  1.389888E-06  135.857
   70.6000  1.386834E-06  138.323
   70.7000  1.407904E-06  141.062
   70.8000  1.458190E-06  143.883
   70.9000  1.540560E-06  146.581
   71.0000  1.655446E-06  148.976
   71.1000  1.800142E-06  150.941
   71.2000  1.970769E-06  152.418
   71.3000  2.159502E-06  153.404
   71.4000  2.358737E-06  153.943
   71.5000  2.558558E-06  154.102
   71.6000  2.749646E-06  153.964
   71.7000  2.923365E-06  153.614
   71.8000  3.072135E-06  153.139
   71.9000  3.190547E-06  152.621
   72.0000  3.275986E-06  152.140
   72.1000  3.328521E-06  151.770
   72.2000  3.351048E-06  151.580
   72.3000  3.349162E-06  151.632
   72.4000  3.331021E-06  151.975
   72.5000  3.306630E-06  152.644
   72.6000  3.286991E-06  153.648
   72.7000  3.283585E-06  154.971
   72.8000  3.307554E-06  156.563
   72.9000  3.368243E-06  158.342
   73.0000  3.473882E-06  160.203
   73.1000  3.629335E-06  162.033
   73.2000  3.837288E-06  163.722
   73.3000  4.096403E-06  165.180
   73.4000  4.403048E-06  166.350
   73.5000  4.750053E-06  167.203
   73.6000  5.127976E-06  167.738
   73.7000  5.525410E-06  167.976
   73.8000  5.929453E-06  167.952
   73.9000  6.327353E-06  167.710
   74.0000  6.706044E-06  167.298
   74.1000  7.053610E-06  166.764
   74.2000  7.360627E-06  166.160
   74.3000  7.619977E-06  165.532
   74.4000  7.827179E-06  164.926
   74.5000  7.981522E-06  164.386
   74.6000  8.085425E-06  163.952
   74.7000  8.144676E-06  163.660
   74.8000  8.167955E-06  163.542
   74.9000  8.167220E-06  163.621
   75.0000  8.155233E-06  163.916
   75.1000  8.147630E-06  164.431
   75.2000  8.159197E-06  165.159
   75.3000  8.205157E-06  166.080
   75.4000  8.300258E-06  167.157
   75.5000  8.456676E-06  168.344
   75.6000  8.684092E-06  169.584
   75.7000  8.989981E-06  170.818
   75.8000  9.378171E-06  171.987
   75.9000  9.849462E-06  173.040
   76.0000  1.040048E-05  173.939
   76.1000  1.102555E-05  174.656
   76.2000  1.171442E-05  175.178
   76.3000  1.245571E-05  175.504
   76.4000  1.323439E-05  175.642
   76.5000  1.403578E-05  175.606
   76.6000  1.484259E-05  175.417
   76.7000  1.563770E-05  175.098
   76.8000  1.640634E-05  174.674
   76.9000  1.713225E-05  174.171
   77.0000  1.780330E-05  173.614
   77.1000  1.840933E-05  173.028
   77.2000  1.894221E-05  172.438
   77.3000  1.939731E-05  171.866
   77.4000  1.977343E-05  171.334
   77.5000  2.007374E-05  170.861
   77.6000  2.030397E-05  170.466
   77.7000  2.047156E-05  170.165
   77.8000  2.058875E-05  169.972
   77.9000  2.066880E-05  169.897
   78.0000  2.072863E-05  169.947
   78.1000  2.078425E-05  170.127
   78.2000  2.085309E-05  170.435
   78.3000  2.095444E-05  170.865
   78.4000  2.110604E-05  171.407
   78.5000  2.132357E-05  172.044
   78.6000  2.162240E-05  172.758
   78.7000  2.201569E-05  173.525
   78.8000  2.251456E-05  174.321
   78.9000  2.312811E-05  175.119
   79.0000  2.386026E-05  175.893
   79.1000  2.471461E-05  176.622
   79.2000  2.569170E-05  177.285
   79.3000  2.678538E-05  177.867
   79.4000  2.799248E-05  178.353
   79.5000  2.930223E-05  178.740
   79.6000  3.070497E-05  179.022
   79.7000  3.218646E-05  179.200
   79.8000  3.373451E-05  179.276
   79.9000  3.532887E-05  179.258
   80.0000  3.695698E-05  179.151
   80.1000  3.860128E-05  178.964
   80.2000  4.024436E-05  178.707
   80.3000  4.187031E-05  178.388
   80.4000  4.346312E-05  178.019
   80.5000  4.500938E-05  177.610
   80.6000  4.649522E-05  177.169
   80.7000  4.790916E-05  176.708
   80.8000  4.924258E-05  176.233
   80.9000  5.048991E-05  175.755
   81.0000  5.164327E-05  175.281
   81.1000  5.270215E-05  174.819
   81.2000  5.366374E-05  174.376
   81.3000  5.453056E-05  173.958
   81.4000  5.530833E-05  173.570
   81.5000  5.599661E-05  173.220
   81.6000  5.660939E-05  172.909
   81.7000  5.715171E-05  172.643
   81.8000  5.763432E-05  172.425
   81.9000  5.806929E-05  172.257
   82.0000  5.846592E-05  172.140
   82.1000  5.883955E-05  172.076
   82.2000  5.920410E-05  172.065
   82.3000  5.957012E-05  172.105
   82.4000  5.995321E-05  172.195
   82.5000  6.036270E-05  172.333
   82.6000  6.081563E-05  172.516
   82.7000  6.131903E-05  172.741
   82.8000  6.188733E-05  173.002
   82.9000  6.252946E-05  173.296
   83.0000  6.325499E-05  173.616
   83.1000  6.406972E-05  173.959
   83.2000  6.498286E-05  174.316
   83.3000  6.599860E-05  174.684
   83.4000  6.711965E-05  175.057
   83.5000  6.835341E-05  175.429
   83.6000  6.969652E-05  175.795
   83.7000  7.115205E-05  176.152
   83.8000  7.271788E-05  176.494
   83.9000  7.439305E-05  176.819
   84.0000  7.617467E-05  177.123
   84.1000  7.806119E-05  177.403
   84.2000  8.004422E-05  177.658
   84.3000  8.211999E-05  177.887
   84.4000  8.428311E-05  178.087
   84.5000  8.652599E-05  178.260
   84.6000  8.884272E-05  178.405
   84.7000  9.122495E-05  178.522
   84.8000  9.366599E-05  178.613
   84.9000  9.615986E-05  178.676
   85.0000  9.869262E-05  178.715
   85.1000  1.012628E-04  178.730
   85.2000  1.038597E-04  178.721
   85.3000  1.064741E-04  178.693
   85.4000  1.091002E-04  178.644
   85.5000  1.117290E-04  178.578
   85.6000  1.143570E-04  178.495
   85.7000  1.169750E-04  178.397
   85.8000  1.195727E-04  178.286
   85.9000  1.221535E-04  178.162
   86.0000  1.247055E-04  178.028
   86.1000  1.272225E-04  177.886
   86.2000  1.296987E-04  177.736
   86.3000  1.321365E-04  177.580
   86.4000  1.345246E-04  177.418
   86.5000  1.368636E-04  177.252
   86.6000  1.391461E-04  177.083
   86.7000  1.413731E-04  176.913
   86.8000  1.435385E-04  176.741
   86.9000  1.456453E-04  176.569
   87.0000  1.476848E-04  176.398
   87.1000  1.496603E-04  176.227
   87.2000  1.515701E-04  176.060
   87.3000  1.534115E-04  175.893
   87.4000  1.551823E-04  175.731
   87.5000  1.568857E-04  175.572
   87.6000  1.585159E-04  175.417
   87.7000  1.600805E-04  175.267
   87.8000  1.615729E-04  175.121
   87.9000  1.629931E-04  174.981
   88.0000  1.643450E-04  174.845
   88.1000  1.656252E-04  174.716
   88.2000  1.668419E-04  174.591
   88.3000  1.679819E-04  174.474
   88.4000  1.690545E-04  174.362
   88.5000  1.700583E-04  174.257
   88.6000  1.710017E-04  174.158
   88.7000  1.718682E-04  174.066
   88.8000  1.726726E-04  173.980
   88.9000  1.734112E-04  173.901
   89.0000  1.740804E-04  173.829
   89.1000  1.746891E-04  173.763
   89.2000  1.752275E-04  173.705
   89.3000  1.757034E-04  173.653
   89.4000  1.761138E-04  173.608
   89.5000  1.764611E-04  173.570
   89.6000  1.767466E-04  173.539
   89.7000  1.769666E-04  173.515
   89.8000  1.771242E-04  173.497
   89.9000  1.772210E-04  173.486
   90.0000  1.772516E-04  173.483